% Langmuir characteristic curve

% U (Volt)	I (A)
-15.000000	-1.796288E-7
-14.994000	-3.360910E-7
-14.988000	-4.798640E-7
-14.982000	-5.221227E-7
-14.976000	-4.122267E-7
-14.970000	-2.260786E-7
-14.964000	-4.840549E-7
-14.958000	-2.853340E-7
-14.952000	-3.656605E-7
-14.946000	-3.656605E-7
-14.940000	-2.091983E-7
-14.934000	-2.768356E-7
-14.928000	-4.079193E-7
-14.922000	-4.037283E-7
-14.916000	-2.735760E-8
-14.910000	-3.360910E-7
-14.904000	-5.692709E-8
-14.898000	-4.925532E-7
-14.892000	-4.798640E-7
-14.886000	-3.952300E-7
-14.880000	-3.656605E-7
-14.874000	-3.065215E-7
-14.868000	-4.925532E-7
-14.862000	-4.967442E-7
-14.856000	-4.037283E-7
-14.850000	-1.965091E-7
-14.844000	-2.345769E-7
-14.838000	-2.557645E-7
-14.832000	-3.614696E-7
-14.826000	-3.572786E-7
-14.820000	-1.923181E-7
-14.814000	-2.430752E-7
-14.808000	-4.459871E-7
-14.802000	-4.249159E-7
-14.796000	-4.037283E-7
-14.790000	-3.699679E-7
-14.784000	-3.192108E-7
-14.778000	-3.107125E-7
-14.772000	-2.472661E-7
-14.766000	-3.445894E-7
-14.760000	-2.218876E-7
-14.754000	-2.303859E-7
-14.748000	-3.360910E-7
-14.742000	-2.895249E-7
-14.736000	-7.811468E-8
-14.730000	-5.273614E-8
-14.724000	-8.649658E-8
-14.718000	-4.713656E-7
-14.712000	-6.152550E-7
-14.706000	-4.671747E-7
-14.700000	-2.980232E-7
-14.694000	-2.768356E-7
-14.688000	-5.348120E-7
-14.682000	-3.065215E-7
-14.676000	-3.868481E-7
-14.670000	-2.430752E-7
-14.664000	-2.218876E-7
-14.658000	-2.641464E-7
-14.652000	-4.164176E-7
-14.645500	-3.656605E-7
-14.639500	-2.472661E-7
-14.633500	-3.107125E-7
-14.627500	-3.868481E-7
-14.621500	-3.995374E-7
-14.615500	-3.868481E-7
-14.609500	-3.910391E-7
-14.603500	-3.529713E-7
-14.597500	-4.502945E-7
-14.591500	-5.898764E-7
-14.585500	-3.149034E-7
-14.579500	-2.387678E-7
-14.573500	-2.557645E-7
-14.567500	-2.514571E-7
-14.561500	-2.599554E-7
-14.555500	-2.735760E-8
-14.549500	1.071021E-8
-14.543500	-1.711305E-7
-14.537500	-1.669396E-7
-14.531500	-4.502945E-7
-14.525500	-4.671747E-7
-14.519500	-3.783498E-7
-14.513500	-4.079193E-7
-14.507500	-4.037283E-7
-14.501500	-6.575137E-7
-14.495500	-3.868481E-7
-14.489500	-3.656605E-7
-14.483500	-2.853340E-7
-14.477500	-1.034932E-7
-14.471500	-2.387678E-7
-14.465500	-2.768356E-7
-14.459500	-3.107125E-7
-14.453500	-1.457520E-7
-14.447500	-2.895249E-7
-14.441500	-3.192108E-7
-14.435500	-5.052425E-7
-14.429500	-3.319001E-7
-14.423500	-3.868481E-7
-14.417500	-3.275927E-7
-14.411500	-4.332978E-7
-14.405500	-4.291069E-7
-14.399500	-4.291069E-7
-14.393500	-1.965091E-7
-14.387500	-1.880107E-7
-14.381500	-3.614696E-7
-14.375500	-3.445894E-7
-14.369500	-4.004687E-8
-14.363500	-9.080395E-8
-14.357500	-1.885928E-8
-14.351500	-5.221227E-7
-14.345500	-5.010515E-7
-14.339500	-3.910391E-7
-14.333500	-4.079193E-7
-14.327500	-4.417961E-7
-14.321500	-3.445894E-7
-14.315500	-5.052425E-7
-14.309500	-2.811430E-7
-14.303500	-2.641464E-7
-14.297500	-2.260786E-7
-14.291500	-3.149034E-7
-14.285500	-3.402820E-7
-14.279500	-4.544854E-7
-14.273500	-2.641464E-7
-14.267500	-2.599554E-7
-14.261500	-3.995374E-7
-14.255500	-5.221227E-7
-14.249500	-3.149034E-7
-14.243500	-1.965091E-7
-14.237500	-4.079193E-7
-14.231500	-5.518086E-7
-14.225500	-4.079193E-7
-14.219500	-4.037283E-7
-14.213500	-1.330627E-7
-14.207500	-2.811430E-7
-14.201500	-3.275927E-7
-14.195500	-3.402820E-7
-14.189500	-1.372537E-7
-14.183500	-1.711305E-7
-14.177500	-2.557645E-7
-14.171500	-4.713656E-7
-14.165500	-5.728798E-7
-14.159500	-3.234018E-7
-14.153500	-3.107125E-7
-14.147500	-4.713656E-7
-14.141500	-3.402820E-7
-14.135500	-5.010515E-7
-14.129500	-4.671747E-7
-14.123500	-2.599554E-7
-14.117500	-2.176967E-7
-14.111500	-3.825407E-7
-14.105500	-3.825407E-7
-14.099500	-2.641464E-7
-14.093500	-2.133893E-7
-14.087500	-3.952300E-7
-14.081500	-4.502945E-7
-14.075500	-4.249159E-7
-14.069500	-2.557645E-7
-14.063500	-4.249159E-7
-14.057500	-3.445894E-7
-14.051500	-5.179318E-7
-14.045500	-4.544854E-7
-14.039500	-5.855691E-7
-14.033500	-9.080395E-8
-14.027500	-1.415610E-7
-14.021500	-2.895249E-7
-14.015500	-3.868481E-7
-14.009500	-3.572786E-7
-14.003500	-9.918585E-8
-13.997500	-1.711305E-7
-13.991500	-2.811430E-7
-13.985500	-4.459871E-7
-13.979500	-4.417961E-7
-13.973500	-3.445894E-7
-13.967500	-4.544854E-7
-13.961500	-2.387678E-7
-13.955500	-2.938323E-7
-13.949000	-3.783498E-7
-13.943000	-3.149034E-7
-13.937000	-3.107125E-7
-13.931000	-3.656605E-7
-13.925000	-3.149034E-7
-13.919000	-2.514571E-7
-13.913000	-3.107125E-7
-13.907000	-2.684537E-7
-13.901000	-2.768356E-7
-13.895000	-4.798640E-7
-13.889000	-5.094334E-7
-13.883000	-2.726447E-7
-13.877000	-2.853340E-7
-13.871000	-6.787013E-7
-13.865000	-4.883623E-7
-13.859000	-4.671747E-7
-13.853000	-1.584413E-7
-13.847000	-2.133893E-7
-13.841000	-2.472661E-7
-13.835000	-2.811430E-7
-13.829000	-3.910391E-7
-13.823000	-8.649658E-8
-13.817000	-2.726447E-7
-13.811000	-9.080395E-8
-13.805000	-3.910391E-7
-13.799000	-5.475013E-7
-13.793000	-3.275927E-7
-13.787000	-2.133893E-7
-13.781000	-1.711305E-7
-13.775000	-4.629837E-7
-13.769000	-3.445894E-7
-13.763000	-2.050074E-7
-13.757000	-2.768356E-7
-13.751000	-3.022142E-7
-13.745000	-3.868481E-7
-13.739000	-3.275927E-7
-13.733000	-1.288718E-7
-13.727000	-2.430752E-7
-13.721000	-1.669396E-7
-13.715000	-5.306210E-7
-13.709000	-4.332978E-7
-13.703000	-3.192108E-7
-13.697000	-3.065215E-7
-13.691000	-6.194459E-7
-13.685000	-5.010515E-7
-13.679000	-3.741588E-7
-13.673000	-4.967442E-7
-13.667000	-2.895249E-7
-13.661000	-2.472661E-7
-13.655000	-3.065215E-7
-13.649000	-2.938323E-7
-13.643000	1.122244E-7
-13.637000	3.189780E-8
-13.631000	-1.457520E-7
-13.625000	-6.236369E-7
-13.619000	-4.629837E-7
-13.613000	-4.713656E-7
-13.607000	-3.402820E-7
-13.601000	-3.699679E-7
-13.595000	-4.459871E-7
-13.589000	-2.133893E-7
-13.583000	-3.783498E-7
-13.577000	-1.499429E-7
-13.571000	-3.614696E-7
-13.565000	-4.206086E-7
-13.559000	-4.079193E-7
-13.553000	-2.133893E-7
-13.547000	-2.345769E-7
-13.541000	-2.091983E-7
-13.535000	-2.895249E-7
-13.529000	-6.321352E-7
-13.523000	-3.741588E-7
-13.517000	-3.022142E-7
-13.511000	-3.741588E-7
-13.505000	-5.348120E-7
-13.499000	-5.433103E-7
-13.493000	-4.713656E-7
-13.487000	-9.918585E-8
-13.481000	-1.288718E-7
-13.475000	-2.684537E-7
-13.469000	-3.529713E-7
-13.463000	-1.161825E-7
-13.457000	-1.626322E-7
-13.451000	-7.380731E-8
-13.445000	-2.303859E-7
-13.439000	-4.925532E-7
-13.433000	-5.475013E-7
-13.427000	-3.614696E-7
-13.421000	-2.895249E-7
-13.415000	-1.711305E-7
-13.409000	-3.275927E-7
-13.403000	-3.910391E-7
-13.397000	-1.880107E-7
-13.391000	-3.402820E-7
-13.385000	-3.065215E-7
-13.379000	-2.345769E-7
-13.373000	-2.938323E-7
-13.367000	-4.164176E-7
-13.361000	-2.303859E-7
-13.355000	-2.853340E-7
-13.349000	-4.417961E-7
-13.343000	-3.741588E-7
-13.337000	-3.192108E-7
-13.331000	-3.614696E-7
-13.325000	-6.194459E-7
-13.319000	-5.686888E-7
-13.313000	-5.094334E-7
-13.307000	-1.838198E-7
-13.301000	-1.330627E-7
-13.295000	-2.133893E-7
-13.289000	-3.065215E-7
-13.283000	-1.584413E-7
-13.277000	-2.599554E-7
-13.271000	-2.091983E-7
-13.265000	-4.122267E-7
-13.258500	-4.417961E-7
-13.252500	-4.417961E-7
-13.246500	-3.402820E-7
-13.240500	-4.291069E-7
-13.234500	-1.711305E-7
-13.228500	-3.192108E-7
-13.222500	-3.065215E-7
-13.216500	-6.961636E-8
-13.210500	-2.176967E-7
-13.204500	-2.641464E-7
-13.198500	-4.291069E-7
-13.192500	-2.938323E-7
-13.186500	-3.699679E-7
-13.180500	-2.853340E-7
-13.174500	-2.895249E-7
-13.168500	-3.825407E-7
-13.162500	-4.037283E-7
-13.156500	-3.402820E-7
-13.150500	-2.726447E-7
-13.144500	-5.094334E-7
-13.138500	-5.644979E-7
-13.132500	-5.728798E-7
-13.126500	-3.234018E-7
-13.120500	-2.641464E-7
-13.114500	-2.050074E-7
-13.108500	-2.345769E-7
-13.102500	-2.980232E-7
-13.096500	-2.387678E-7
-13.090500	-2.050074E-7
-13.084500	-1.923181E-7
-13.078500	-3.529713E-7
-13.072500	-3.825407E-7
-13.066500	-3.741588E-7
-13.060500	-4.079193E-7
-13.054500	-3.910391E-7
-13.048500	-3.952300E-7
-13.042500	-2.599554E-7
-13.036500	-3.319001E-7
-13.030500	-2.260786E-7
-13.024500	-2.050074E-7
-13.018500	-3.360910E-7
-13.012500	-2.303859E-7
-13.006500	-1.330627E-7
-13.000500	-3.234018E-7
-12.994500	-2.938323E-7
-12.988500	-3.825407E-7
-12.982500	-4.291069E-7
-12.976500	-4.332978E-7
-12.970500	-4.037283E-7
-12.964500	-2.895249E-7
-12.958500	-5.771872E-7
-12.952500	-6.025657E-7
-12.946500	-4.502945E-7
-12.940500	-1.796288E-7
-12.934500	-3.149034E-7
-12.928500	-3.065215E-7
-12.922500	-3.275927E-7
-12.916500	-7.380731E-8
-12.910500	-7.380731E-8
-12.904500	-9.499490E-8
-12.898500	-2.895249E-7
-12.892500	-3.952300E-7
-12.886500	-2.726447E-7
-12.880500	-2.895249E-7
-12.874500	-2.726447E-7
-12.868500	-3.487803E-7
-12.862500	-4.671747E-7
-12.856500	-2.980232E-7
-12.850500	-2.641464E-7
-12.844500	-1.965091E-7
-12.838500	-4.122267E-7
-12.832500	-4.629837E-7
-12.826500	-4.423782E-8
-12.820500	-1.036096E-8
-12.814500	-1.626322E-7
-12.808500	-1.288718E-7
-12.802500	-5.221227E-7
-12.796500	-3.402820E-7
-12.790500	-3.614696E-7
-12.784500	-4.417961E-7
-12.778500	-5.982583E-7
-12.772500	-6.828923E-7
-12.766500	-4.840549E-7
-12.760500	-1.245644E-7
-12.754500	1.920853E-8
-12.748500	-3.022142E-7
-12.742500	-3.275927E-7
-12.736500	-2.735760E-8
-12.730500	-1.118751E-7
-12.724500	-1.118751E-7
-12.718500	-1.372537E-7
-12.712500	-4.671747E-7
-12.706500	-3.614696E-7
-12.700500	-3.402820E-7
-12.694500	-3.402820E-7
-12.688500	-3.319001E-7
-12.682500	-2.980232E-7
-12.676500	-4.122267E-7
-12.670500	-3.487803E-7
-12.664500	-5.692709E-8
-12.658500	-1.796288E-7
-12.652500	-2.260786E-7
-12.646500	-2.218876E-7
-12.640500	-2.430752E-7
-12.634500	-2.641464E-7
-12.628500	-2.938323E-7
-12.622500	-6.152550E-7
-12.616500	-4.756730E-7
-12.610500	-3.614696E-7
-12.604500	-3.234018E-7
-12.598500	-6.533228E-7
-12.592500	-5.813781E-7
-12.586500	-4.840549E-7
-12.580500	-2.895249E-7
-12.574500	-1.118751E-7
-12.568000	-1.457520E-7
-12.562000	-4.332978E-7
-12.556000	-2.726447E-7
-12.550000	-3.952300E-7
-12.544000	-3.360910E-7
-12.538000	-3.149034E-7
-12.532000	-2.980232E-7
-12.526000	-4.122267E-7
-12.520000	-3.234018E-7
-12.514000	-3.656605E-7
-12.508000	-3.487803E-7
-12.502000	-3.319001E-7
-12.496000	-4.883623E-7
-12.490000	-4.079193E-7
-12.484000	-2.768356E-7
-12.478000	-1.880107E-7
-12.472000	-4.883623E-7
-12.466000	-3.107125E-7
-12.460000	-1.626322E-7
-12.454000	-1.965091E-7
-12.448000	-1.245644E-7
-12.442000	-4.376052E-7
-12.436000	-4.629837E-7
-12.430000	-3.107125E-7
-12.424000	-3.319001E-7
-12.418000	-3.825407E-7
-12.412000	-4.756730E-7
-12.406000	-4.840549E-7
-12.400000	-4.164176E-7
-12.394000	-1.415610E-7
-12.388000	-2.641464E-7
-12.382000	-2.345769E-7
-12.376000	-1.711305E-7
-12.370000	-3.234018E-7
-12.364000	-2.260786E-7
-12.358000	-2.895249E-7
-12.352000	-4.798640E-7
-12.346000	-3.783498E-7
-12.340000	-3.402820E-7
-12.334000	-2.514571E-7
-12.328000	-3.192108E-7
-12.322000	-3.107125E-7
-12.316000	-4.291069E-7
-12.310000	-4.079193E-7
-12.304000	-1.923181E-7
-12.298000	-1.923181E-7
-12.292000	-1.330627E-7
-12.286000	-3.192108E-7
-12.280000	-3.192108E-7
-12.274000	-2.853340E-7
-12.268000	-1.796288E-7
-12.262000	-3.995374E-7
-12.256000	-3.656605E-7
-12.250000	-4.756730E-7
-12.244000	-1.838198E-7
-12.238000	-2.938323E-7
-12.232000	-5.559996E-7
-12.226000	-5.644979E-7
-12.220000	-6.617047E-7
-12.214000	-1.288718E-7
-12.208000	-1.669396E-7
-12.202000	-3.825407E-7
-12.196000	-2.684537E-7
-12.190000	-4.037283E-7
-12.184000	-2.938323E-7
-12.178000	-2.472661E-7
-12.172000	-3.825407E-7
-12.166000	-3.699679E-7
-12.160000	-3.910391E-7
-12.154000	-4.332978E-7
-12.148000	-1.372537E-7
-12.142000	-4.671747E-7
-12.136000	-3.360910E-7
-12.130000	-3.107125E-7
-12.124000	-3.445894E-7
-12.118000	-4.423782E-8
-12.112000	-2.811430E-7
-12.106000	-2.599554E-7
-12.100000	-2.472661E-7
-12.094000	6.519258E-9
-12.088000	-4.423782E-8
-12.082000	-1.669396E-7
-12.076000	-4.206086E-7
-12.070000	-2.430752E-7
-12.064000	-3.319001E-7
-12.058000	-2.768356E-7
-12.052000	-5.094334E-7
-12.046000	-5.433103E-7
-12.040000	-5.137408E-7
-12.034000	-3.868481E-7
-12.028000	-1.499429E-7
-12.022000	-1.838198E-7
-12.016000	-2.260786E-7
-12.010000	-3.234018E-7
-12.004000	-1.076842E-7
-11.998000	-2.557645E-7
-11.992000	-2.260786E-7
-11.986000	-3.995374E-7
-11.980000	-3.699679E-7
-11.974000	-3.065215E-7
-11.968000	-3.275927E-7
-11.962000	-3.825407E-7
-11.956000	-5.306210E-7
-11.950000	-5.306210E-7
-11.944000	-2.091983E-7
-11.938000	-1.584413E-7
-11.932000	-2.260786E-7
-11.926000	-1.880107E-7
-11.920000	-2.430752E-7
-11.914000	-1.036096E-8
-11.908000	-8.230563E-8
-11.902000	-1.711305E-7
-11.896000	-4.756730E-7
-11.890000	-5.686888E-7
-11.884000	-3.656605E-7
-11.878000	-2.853340E-7
-11.871500	-4.332978E-7
-11.865500	-6.236369E-7
-11.859500	-4.164176E-7
-11.853500	-3.319001E-7
-11.847500	-1.034932E-7
-11.841500	-1.838198E-7
-11.835500	-4.713656E-7
-11.829500	-2.387678E-7
-11.823500	-4.332978E-7
-11.817500	-1.118751E-7
-11.811500	-2.176967E-7
-11.805500	-5.010515E-7
-11.799500	-3.275927E-7
-11.793500	-2.218876E-7
-11.787500	-3.149034E-7
-11.781500	-2.768356E-7
-11.775500	-3.783498E-7
-11.769500	-4.502945E-7
-11.763500	-3.022142E-7
-11.757500	-2.050074E-7
-11.751500	-2.430752E-7
-11.745500	-2.599554E-7
-11.739500	-2.599554E-7
-11.733500	4.039612E-8
-11.727500	-8.649658E-8
-11.721500	-3.154855E-8
-11.715500	-1.076842E-7
-11.709500	-4.629837E-7
-11.703500	-2.726447E-7
-11.697500	-3.360910E-7
-11.691500	-4.164176E-7
-11.685500	-3.656605E-7
-11.679500	-4.417961E-7
-11.673500	-4.079193E-7
-11.667500	-1.753215E-7
-11.661500	-2.641464E-7
-11.655500	-3.952300E-7
-11.649500	-3.275927E-7
-11.643500	-2.811430E-7
-11.637500	-1.796288E-7
-11.631500	-4.629837E-7
-11.625500	-2.345769E-7
-11.619500	-3.910391E-7
-11.613500	-3.572786E-7
-11.607500	-1.796288E-7
-11.601500	-2.811430E-7
-11.595500	-2.133893E-7
-11.589500	-2.387678E-7
-11.583500	-4.671747E-7
-11.577500	-1.542503E-7
-11.571500	-1.415610E-7
-11.565500	-3.529713E-7
-11.559500	-4.122267E-7
-11.553500	-2.303859E-7
-11.547500	-3.022142E-7
-11.541500	3.608875E-8
-11.535500	-1.584413E-7
-11.529500	-5.475013E-7
-11.523500	-4.164176E-7
-11.517500	-3.656605E-7
-11.511500	-3.529713E-7
-11.505500	-2.938323E-7
-11.499500	-3.699679E-7
-11.493500	-4.122267E-7
-11.487500	-3.192108E-7
-11.481500	-9.080395E-8
-11.475500	-1.076842E-7
-11.469500	-2.768356E-7
-11.463500	-1.965091E-7
-11.457500	-4.206086E-7
-11.451500	-3.107125E-7
-11.445500	-2.050074E-7
-11.439500	-3.868481E-7
-11.433500	-3.360910E-7
-11.427500	-4.079193E-7
-11.421500	-2.430752E-7
-11.415500	-3.234018E-7
-11.409500	-2.726447E-7
-11.403500	-3.402820E-7
-11.397500	-1.457520E-7
-11.391500	-1.965091E-7
-11.385500	-1.880107E-7
-11.379500	-3.149034E-7
-11.373500	-3.065215E-7
-11.367500	4.458707E-8
-11.361500	-4.842877E-8
-11.355500	-1.796288E-7
-11.349500	-4.332978E-7
-11.343500	-3.149034E-7
-11.337500	-3.741588E-7
-11.331500	-2.726447E-7
-11.325500	-5.898764E-7
-11.319500	-4.249159E-7
-11.313500	-5.601905E-7
-11.307500	-2.853340E-7
-11.301500	-1.466833E-8
-11.295500	-1.245644E-7
-11.289500	-2.726447E-7
-11.283500	-3.065215E-7
-11.277500	-5.137408E-7
-11.271500	-2.768356E-7
-11.265500	-2.133893E-7
-11.259500	-3.910391E-7
-11.253500	-5.348120E-7
-11.247500	-4.756730E-7
-11.241500	-3.572786E-7
-11.235500	-4.037283E-7
-11.229500	-4.967442E-7
-11.223500	-4.840549E-7
-11.217500	-5.052425E-7
-11.211500	-1.372537E-7
-11.205500	-2.853340E-7
-11.199500	-2.345769E-7
-11.193500	-2.133893E-7
-11.187500	6.146729E-8
-11.181000	2.770685E-8
-11.175000	-4.842877E-8
-11.169000	-1.499429E-7
-11.163000	-5.094334E-7
-11.157000	-2.514571E-7
-11.151000	-3.065215E-7
-11.145000	-2.853340E-7
-11.139000	-4.798640E-7
-11.133000	-4.206086E-7
-11.127000	-4.756730E-7
-11.121000	-1.499429E-7
-11.115000	-2.345769E-7
-11.109000	-7.380731E-8
-11.103000	-3.402820E-7
-11.097000	-2.050074E-7
-11.091000	-2.472661E-7
-11.085000	-2.684537E-7
-11.079000	-3.275927E-7
-11.073000	-3.910391E-7
-11.067000	-3.107125E-7
-11.061000	-3.275927E-7
-11.055000	-2.599554E-7
-11.049000	-5.221227E-7
-11.043000	-3.572786E-7
-11.037000	-5.391194E-7
-11.031000	-7.811468E-8
-11.025000	-1.499429E-7
-11.019000	-2.176967E-7
-11.013000	-2.895249E-7
-11.007000	-2.472661E-7
-11.001000	6.519258E-9
-10.995000	-1.076842E-7
-10.989000	-2.684537E-7
-10.983000	-4.502945E-7
-10.977000	-5.137408E-7
-10.971000	-3.275927E-7
-10.965000	-3.192108E-7
-10.959000	-1.118751E-7
-10.953000	-4.459871E-7
-10.947000	-2.980232E-7
-10.941000	-2.684537E-7
-10.935000	-2.260786E-7
-10.929000	-2.599554E-7
-10.923000	-2.303859E-7
-10.917000	-1.288718E-7
-10.911000	3.608875E-8
-10.905000	-1.245644E-7
-10.899000	-1.499429E-7
-10.893000	-4.544854E-7
-10.887000	-3.656605E-7
-10.881000	-4.037283E-7
-10.875000	-2.895249E-7
-10.869000	-3.487803E-7
-10.863000	-3.234018E-7
-10.857000	-4.967442E-7
-10.851000	-1.288718E-7
-10.845000	-8.649658E-8
-10.839000	-2.176967E-7
-10.833000	-2.387678E-7
-10.827000	-2.895249E-7
-10.821000	2.328306E-9
-10.815000	-1.288718E-7
-10.809000	-1.796288E-7
-10.803000	-2.514571E-7
-10.797000	-4.967442E-7
-10.791000	-2.980232E-7
-10.785000	-3.952300E-7
-10.779000	-2.303859E-7
-10.773000	-2.938323E-7
-10.767000	-4.122267E-7
-10.761000	-3.149034E-7
-10.755000	-1.415610E-7
-10.749000	-1.415610E-7
-10.743000	-2.218876E-7
-10.737000	-2.514571E-7
-10.731000	-2.472661E-7
-10.725000	-2.218876E-7
-10.719000	-1.796288E-7
-10.713000	-4.586764E-7
-10.707000	-3.529713E-7
-10.701000	-3.360910E-7
-10.695000	-2.684537E-7
-10.689000	-6.067567E-7
-10.683000	-5.221227E-7
-10.677000	-4.544854E-7
-10.671000	-4.206086E-7
-10.665000	-9.918585E-8
-10.659000	-1.542503E-7
-10.653000	-2.133893E-7
-10.647000	-2.853340E-7
-10.641000	-2.514571E-7
-10.635000	-1.542503E-7
-10.629000	-3.149034E-7
-10.623000	-4.544854E-7
-10.617000	-3.910391E-7
-10.611000	-4.206086E-7
-10.605000	-3.910391E-7
-10.599000	-2.303859E-7
-10.593000	-3.868481E-7
-10.587000	-2.853340E-7
-10.581000	-3.319001E-7
-10.575000	-1.838198E-7
-10.569000	-2.514571E-7
-10.563000	-9.918585E-8
-10.557000	-2.895249E-7
-10.551000	-2.050074E-7
-10.545000	-1.838198E-7
-10.539000	-1.076842E-7
-10.533000	-4.586764E-7
-10.527000	-4.798640E-7
-10.521000	-4.756730E-7
-10.515000	-3.614696E-7
-10.509000	-3.572786E-7
-10.503000	-4.629837E-7
-10.497000	-4.164176E-7
-10.491000	-3.656605E-7
-10.484500	-2.514571E-7
-10.478500	-1.626322E-7
-10.472500	-1.838198E-7
-10.466500	-3.192108E-7
-10.460500	-3.402820E-7
-10.454500	-1.330627E-7
-10.448500	-2.514571E-7
-10.442500	-2.218876E-7
-10.436500	-3.741588E-7
-10.430500	-3.149034E-7
-10.424500	-3.529713E-7
-10.418500	-1.499429E-7
-10.412500	-3.614696E-7
-10.406500	-3.234018E-7
-10.400500	-4.206086E-7
-10.394500	-1.161825E-7
-10.388500	-1.880107E-7
-10.382500	-2.303859E-7
-10.376500	-2.133893E-7
-10.370500	-9.918585E-8
-10.364500	-2.303859E-7
-10.358500	-2.007000E-7
-10.352500	-1.203734E-7
-10.346500	-5.052425E-7
-10.340500	-3.572786E-7
-10.334500	-2.726447E-7
-10.328500	-3.022142E-7
-10.322500	-3.487803E-7
-10.316500	-5.264301E-7
-10.310500	-4.586764E-7
-10.304500	-3.319001E-7
-10.298500	-7.811468E-8
-10.292500	-2.684537E-7
-10.286500	-2.768356E-7
-10.280500	-2.726447E-7
-10.274500	-3.154855E-8
-10.268500	-5.692709E-8
-10.262500	-2.684537E-7
-10.256500	-4.840549E-7
-10.250500	-5.728798E-7
-10.244500	-3.192108E-7
-10.238500	-3.402820E-7
-10.232500	-4.164176E-7
-10.226500	-3.868481E-7
-10.220500	-4.037283E-7
-10.214500	-2.218876E-7
-10.208500	-1.034932E-7
-10.202500	-1.669396E-7
-10.196500	-3.319001E-7
-10.190500	-2.133893E-7
-10.184500	-2.811430E-7
-10.178500	-2.938323E-7
-10.172500	-2.007000E-7
-10.166500	-2.726447E-7
-10.160500	-3.360910E-7
-10.154500	-3.445894E-7
-10.148500	-3.149034E-7
-10.142500	-5.601905E-7
-10.136500	-6.279442E-7
-10.130500	-4.544854E-7
-10.124500	-4.291069E-7
-10.118500	-1.203734E-7
-10.112500	-8.230563E-8
-10.106500	-2.133893E-7
-10.100500	-8.230563E-8
-10.094500	2.328306E-9
-10.088500	-1.034932E-7
-10.082500	-7.811468E-8
-10.076500	-4.713656E-7
-10.070500	-4.586764E-7
-10.064500	-2.768356E-7
-10.058500	-2.514571E-7
-10.052500	-3.868481E-7
-10.046500	-2.430752E-7
-10.040500	-1.838198E-7
-10.034500	-2.133893E-7
-10.028500	-2.050074E-7
-10.022500	-2.176967E-7
-10.016500	-2.091983E-7
-10.010500	-2.176967E-7
-10.004500	-2.007000E-7
-9.998500	-1.880107E-7
-9.992500	-7.811468E-8
-9.986500	-2.895249E-7
-9.980500	-3.699679E-7
-9.974500	-3.783498E-7
-9.968500	-2.726447E-7
-9.962500	-2.895249E-7
-9.956500	-4.586764E-7
-9.950500	-3.234018E-7
-9.944500	-3.192108E-7
-9.938500	-1.466833E-8
-9.932500	-1.923181E-7
-9.926500	-2.176967E-7
-9.920500	-2.853340E-7
-9.914500	1.122244E-7
-9.908500	1.920853E-8
-9.902500	-1.036096E-8
-9.896500	-1.669396E-7
-9.890500	-4.332978E-7
-9.884500	-4.883623E-7
-9.878500	-1.457520E-7
-9.872500	-2.726447E-7
-9.866500	-2.641464E-7
-9.860500	-2.726447E-7
-9.854500	-3.234018E-7
-9.848500	-1.245644E-7
-9.842500	-2.768356E-7
-9.836500	-2.091983E-7
-9.830500	-3.614696E-7
-9.824500	-2.345769E-7
-9.818500	-1.372537E-7
-9.812500	-4.037283E-7
-9.806500	-1.965091E-7
-9.800000	-3.995374E-7
-9.794000	-2.303859E-7
-9.788000	-1.542503E-7
-9.782000	-2.938323E-7
-9.776000	-4.586764E-7
-9.770000	-4.122267E-7
-9.764000	-3.572786E-7
-9.758000	-1.415610E-7
-9.752000	-1.669396E-7
-9.746000	-2.176967E-7
-9.740000	-2.133893E-7
-9.734000	-2.768356E-7
-9.728000	-1.885928E-8
-9.722000	1.080334E-7
-9.716000	-1.372537E-7
-9.710000	-4.122267E-7
-9.704000	-4.629837E-7
-9.698000	-2.684537E-7
-9.692000	-3.319001E-7
-9.686000	-3.402820E-7
-9.680000	-2.387678E-7
-9.674000	-3.319001E-7
-9.668000	-2.684537E-7
-9.662000	-2.387678E-7
-9.656000	-1.036096E-8
-9.650000	-1.838198E-7
-9.644000	-3.699679E-7
-9.638000	-2.641464E-7
-9.632000	-2.430752E-7
-9.626000	-2.007000E-7
-9.620000	-3.614696E-7
-9.614000	-3.275927E-7
-9.608000	-1.203734E-7
-9.602000	-2.345769E-7
-9.596000	-5.686888E-7
-9.590000	-4.840549E-7
-9.584000	-4.249159E-7
-9.578000	-4.544854E-7
-9.572000	-3.573950E-8
-9.566000	-1.838198E-7
-9.560000	-8.230563E-8
-9.554000	-2.176967E-7
-9.548000	-1.036096E-8
-9.542000	1.920853E-8
-9.536000	-6.542541E-8
-9.530000	-3.952300E-7
-9.524000	-3.995374E-7
-9.518000	-4.079193E-7
-9.512000	-2.768356E-7
-9.506000	-4.037283E-7
-9.500000	-4.291069E-7
-9.494000	-4.376052E-7
-9.488000	-4.798640E-7
-9.482000	-4.004687E-8
-9.476000	-1.923181E-7
-9.470000	-3.656605E-7
-9.464000	-2.218876E-7
-9.458000	-2.176967E-7
-9.452000	-2.726447E-7
-9.446000	-9.918585E-8
-9.440000	-3.149034E-7
-9.434000	-3.741588E-7
-9.428000	-3.825407E-7
-9.422000	-2.895249E-7
-9.416000	-1.372537E-7
-9.410000	-5.052425E-7
-9.404000	-6.152550E-7
-9.398000	-4.332978E-7
-9.392000	-7.380731E-8
-9.386000	-2.176967E-7
-9.380000	-5.094334E-7
-9.374000	-1.965091E-7
-9.368000	-3.529713E-7
-9.362000	-1.036096E-8
-9.356000	-6.170012E-9
-9.350000	-1.838198E-7
-9.344000	-3.868481E-7
-9.338000	-3.319001E-7
-9.332000	-2.811430E-7
-9.326000	-2.641464E-7
-9.320000	-1.372537E-7
-9.314000	-3.107125E-7
-9.308000	-1.499429E-7
-9.302000	-2.133893E-7
-9.296000	-1.288718E-7
-9.290000	-2.430752E-7
-9.284000	-2.557645E-7
-9.278000	-1.626322E-7
-9.272000	-3.656605E-7
-9.266000	-1.076842E-7
-9.260000	-1.034932E-7
-9.254000	-3.234018E-7
-9.248000	-3.783498E-7
-9.242000	-1.457520E-7
-9.236000	-2.641464E-7
-9.230000	-4.291069E-7
-9.224000	-3.319001E-7
-9.218000	-4.079193E-7
-9.212000	-4.004687E-8
-9.206000	-2.133893E-7
-9.200000	-2.007000E-7
-9.194000	-2.980232E-7
-9.188000	-2.303859E-7
-9.182000	-1.161825E-7
-9.176000	4.039612E-8
-9.170000	-1.118751E-7
-9.164000	-4.417961E-7
-9.158000	-4.586764E-7
-9.152000	-1.796288E-7
-9.146000	-3.868481E-7
-9.140000	-3.783498E-7
-9.134000	-2.726447E-7
-9.128000	-1.288718E-7
-9.122000	-2.050074E-7
-9.116000	-1.796288E-7
-9.109500	-2.260786E-7
-9.103500	-3.360910E-7
-9.097500	-7.811468E-8
-9.091500	-1.923181E-7
-9.085500	-1.669396E-7
-9.079500	-1.203734E-7
-9.073500	-4.883623E-7
-9.067500	-3.149034E-7
-9.061500	-1.203734E-7
-9.055500	-2.599554E-7
-9.049500	-6.787013E-7
-9.043500	-5.179318E-7
-9.037500	-3.783498E-7
-9.031500	5.727634E-8
-9.025500	-1.372537E-7
-9.019500	-1.584413E-7
-9.013500	-2.176967E-7
-9.007500	-2.599554E-7
-9.001500	1.071021E-8
-8.995500	2.339948E-8
-8.989500	-4.842877E-8
-8.983500	-3.868481E-7
-8.977500	-3.910391E-7
-8.971500	-2.641464E-7
-8.965500	-4.840549E-7
-8.959500	-3.275927E-7
-8.953500	-3.445894E-7
-8.947500	-2.853340E-7
-8.941500	-3.868481E-7
-8.935500	2.339948E-8
-8.929500	-1.584413E-7
-8.923500	-1.796288E-7
-8.917500	-3.445894E-7
-8.911500	9.534415E-8
-8.905500	6.519258E-9
-8.899500	-2.133893E-7
-8.893500	-3.572786E-7
-8.887500	-3.741588E-7
-8.881500	-2.176967E-7
-8.875500	-3.825407E-7
-8.869500	-9.080395E-8
-8.863500	-4.079193E-7
-8.857500	-3.402820E-7
-8.851500	-2.641464E-7
-8.845500	-4.423782E-8
-8.839500	-1.034932E-7
-8.833500	-2.260786E-7
-8.827500	-2.303859E-7
-8.821500	-4.840549E-7
-8.815500	-1.457520E-7
-8.809500	-1.499429E-7
-8.803500	-1.415610E-7
-8.797500	-2.811430E-7
-8.791500	-2.218876E-7
-8.785500	-2.007000E-7
-8.779500	-2.218876E-7
-8.773500	-3.783498E-7
-8.767500	-3.192108E-7
-8.761500	-4.883623E-7
-8.755500	-6.111804E-8
-8.749500	-2.218876E-7
-8.743500	-2.938323E-7
-8.737500	-4.423782E-8
-8.731500	1.207227E-7
-8.725500	4.877802E-8
-8.719500	-9.918585E-8
-8.713500	-1.288718E-7
-8.707500	-3.656605E-7
-8.701500	-2.260786E-7
-8.695500	-2.557645E-7
-8.689500	-6.961636E-8
-8.683500	-3.360910E-7
-8.677500	-3.487803E-7
-8.671500	-2.260786E-7
-8.665500	-7.811468E-8
-8.659500	-3.154855E-8
-8.653500	-1.034932E-7
-8.647500	-1.499429E-7
-8.641500	-3.952300E-7
-8.635500	-1.965091E-7
-8.629500	-1.753215E-7
-8.623500	-1.415610E-7
-8.617500	-3.360910E-7
-8.611500	-3.699679E-7
-8.605500	-2.050074E-7
-8.599500	-1.796288E-7
-8.593500	-4.079193E-7
-8.587500	-4.122267E-7
-8.581500	-3.825407E-7
-8.575500	-1.076842E-7
-8.569500	-2.641464E-7
-8.563500	-1.584413E-7
-8.557500	-2.430752E-7
-8.551500	1.334120E-7
-8.545500	-6.170012E-9
-8.539500	6.996561E-8
-8.533500	-4.423782E-8
-8.527500	-2.895249E-7
-8.521500	-4.376052E-7
-8.515500	-5.273614E-8
-8.509500	-1.330627E-7
-8.503500	-3.402820E-7
-8.497500	-2.387678E-7
-8.491500	-3.065215E-7
-8.485500	-1.753215E-7
-8.479500	-6.542541E-8
-8.473500	-1.885928E-8
-8.467500	-1.330627E-7
-8.461500	-1.457520E-7
-8.455500	-3.445894E-7
-8.449500	-1.034932E-7
-8.443500	-1.880107E-7
-8.437500	-2.811430E-7
-8.431500	-3.868481E-7
-8.425500	-1.923181E-7
-8.419000	-1.288718E-7
-8.413000	-3.065215E-7
-8.407000	-2.726447E-7
-8.401000	-2.811430E-7
-8.395000	-3.995374E-7
-8.389000	8.265488E-8
-8.383000	-2.514571E-7
-8.377000	-1.161825E-7
-8.371000	-1.457520E-7
-8.365000	1.841690E-7
-8.359000	1.038425E-7
-8.353000	9.534415E-8
-8.347000	-2.303859E-7
-8.341000	-2.430752E-7
-8.335000	-1.034932E-7
-8.329000	-1.330627E-7
-8.323000	-1.753215E-7
-8.317000	-1.036096E-8
-8.311000	-9.918585E-8
-8.305000	-2.305023E-8
-8.299000	4.458707E-8
-8.293000	-2.726447E-7
-8.287000	-2.735760E-8
-8.281000	-7.811468E-8
-8.275000	-3.573950E-8
-8.269000	-6.542541E-8
-8.263000	7.846393E-8
-8.257000	-6.542541E-8
-8.251000	-1.796288E-7
-8.245000	-1.288718E-7
-8.239000	-6.542541E-8
-8.233000	-3.107125E-7
-8.227000	-2.260786E-7
-8.221000	-1.796288E-7
-8.215000	-1.923181E-7
-8.209000	2.391171E-7
-8.203000	9.534415E-8
-8.197000	1.165317E-7
-8.191000	-2.305023E-8
-8.185000	1.714798E-7
-8.179000	1.417939E-7
-8.173000	2.518063E-7
-8.167000	-2.218876E-7
-8.161000	-1.965091E-7
-8.155000	-6.961636E-8
-8.149000	-1.118751E-7
-8.143000	1.122244E-7
-8.137000	3.608875E-8
-8.131000	4.039612E-8
-8.125000	-1.288718E-7
-8.119000	9.534415E-8
-8.113000	2.603047E-7
-8.107000	5.727634E-8
-8.101000	-3.154855E-8
-8.095000	-1.076842E-7
-8.089000	-1.979060E-9
-8.083000	4.877802E-8
-8.077000	-4.842877E-8
-8.071000	-1.161825E-7
-8.065000	-5.692709E-8
-8.059000	3.189780E-8
-8.053000	4.039612E-8
-8.047000	-2.133893E-7
-8.041000	-1.372537E-7
-8.035000	3.608875E-8
-8.029000	3.067544E-7
-8.023000	2.179295E-7
-8.017000	-2.735760E-8
-8.011000	7.415656E-8
-8.005000	1.165317E-7
-7.999000	3.743917E-7
-7.993000	3.067544E-7
-7.987000	1.461012E-7
-7.981000	-4.423782E-8
-7.975000	-6.111804E-8
-7.969000	1.080334E-7
-7.963000	1.417939E-7
-7.957000	3.110617E-7
-7.951000	1.207227E-7
-7.945000	1.502922E-7
-7.939000	1.629815E-7
-7.933000	4.124595E-7
-7.927000	2.222368E-7
-7.921000	2.559973E-7
-7.915000	2.095476E-7
-7.909000	4.336471E-7
-7.903000	2.856832E-7
-7.897000	2.983725E-7
-7.891000	5.308539E-8
-7.885000	4.458707E-8
-7.879000	1.756707E-7
-7.873000	1.883600E-7
-7.867000	2.052402E-7
-7.861000	4.632166E-7
-7.855000	2.095476E-7
-7.849000	2.349261E-7
-7.843000	4.336471E-7
-7.837000	4.124595E-7
-7.831000	3.870809E-7
-7.825000	3.237510E-7
-7.819000	2.856832E-7
-7.813000	3.913883E-7
-7.807000	4.421454E-7
-7.801000	2.686866E-7
-7.795000	1.587905E-7
-7.789000	4.632166E-7
-7.783000	3.660098E-7
-7.777000	2.856832E-7
-7.771000	4.167669E-7
-7.765000	3.955793E-7
-7.759000	2.222368E-7
-7.752500	5.436596E-7
-7.746500	5.097827E-7
-7.740500	3.660098E-7
-7.734500	4.802132E-7
-7.728500	6.662449E-7
-7.722500	7.255003E-7
-7.716500	8.312054E-7
-7.710500	3.575115E-7
-7.704500	3.997702E-7
-7.698500	3.702007E-7
-7.692500	6.154878E-7
-7.686500	4.929025E-7
-7.680500	2.603047E-7
-7.674500	3.702007E-7
-7.668500	5.986076E-7
-7.662500	7.128110E-7
-7.656500	6.493647E-7
-7.650500	5.901093E-7
-7.644500	6.704358E-7
-7.638500	9.411015E-7
-7.632500	8.903444E-7
-7.626500	8.988427E-7
-7.620500	8.734642E-7
-7.614500	5.012844E-7
-7.608500	6.112969E-7
-7.602500	8.100178E-7
-7.596500	7.677590E-7
-7.590500	9.749783E-7
-7.584500	8.016359E-7
-7.578500	8.100178E-7
-7.572500	9.664800E-7
-7.566500	8.903444E-7
-7.560500	1.008855E-6
-7.554500	8.100178E-7
-7.548500	9.537907E-7
-7.542500	1.313281E-6
-7.536500	1.089182E-6
-7.530500	1.152628E-6
-7.524500	8.565839E-7
-7.518500	8.946517E-7
-7.512500	1.059612E-6
-7.506500	1.051114E-6
-7.500500	1.148321E-6
-7.494500	9.749783E-7
-7.488500	1.118751E-6
-7.482500	1.025735E-6
-7.476500	1.334469E-6
-7.470500	1.448672E-6
-7.464500	1.325971E-6
-7.458500	1.224456E-6
-7.452500	1.622015E-6
-7.446500	1.617824E-6
-7.440500	1.410604E-6
-7.434500	1.207576E-6
-7.428500	1.220265E-6
-7.422500	1.271022E-6
-7.416500	1.435983E-6
-7.410500	1.283712E-6
-7.404500	1.575565E-6
-7.398500	1.368229E-6
-7.392500	1.457054E-6
-7.386500	1.550186E-6
-7.380500	1.605134E-6
-7.374500	1.630513E-6
-7.368500	1.609325E-6
-7.362500	1.503620E-6
-7.356500	1.723529E-6
-7.350500	1.786975E-6
-7.344500	1.651584E-6
-7.338500	1.850422E-6
-7.332500	1.723529E-6
-7.326500	1.744716E-6
-7.320500	1.909561E-6
-7.314500	1.956127E-6
-7.308500	2.095709E-6
-7.302500	1.825043E-6
-7.296500	2.049142E-6
-7.290500	2.040761E-6
-7.284500	2.146466E-6
-7.278500	2.129469E-6
-7.272500	2.472079E-6
-7.266500	2.467888E-6
-7.260500	2.446701E-6
-7.254500	2.505956E-6
-7.248500	2.184534E-6
-7.242500	2.480578E-6
-7.236500	2.374756E-6
-7.230500	2.501649E-6
-7.224500	2.214103E-6
-7.218500	2.340996E-6
-7.212500	2.417131E-6
-7.206500	2.941466E-6
-7.200500	3.000721E-6
-7.194500	2.658111E-6
-7.188500	2.759625E-6
-7.182500	3.034482E-6
-7.176500	3.203750E-6
-7.170500	3.097928E-6
-7.164500	2.958463E-6
-7.158500	2.937275E-6
-7.152500	3.157184E-6
-7.146500	3.102235E-6
-7.140500	3.220630E-6
-7.134500	3.377092E-6
-7.128000	3.220630E-6
-7.122000	3.313646E-6
-7.116000	3.440538E-6
-7.110000	3.520865E-6
-7.104000	3.690016E-6
-7.098000	3.482797E-6
-7.092000	3.795722E-6
-7.086000	3.673136E-6
-7.080000	3.825407E-6
-7.074000	4.041009E-6
-7.068000	3.630877E-6
-7.062000	3.715395E-6
-7.056000	3.947993E-6
-7.050000	4.070695E-6
-7.044000	4.083384E-6
-7.038000	4.269416E-6
-7.032000	4.189089E-6
-7.026000	4.252535E-6
-7.020000	4.561269E-6
-7.014000	4.447065E-6
-7.008000	4.480826E-6
-7.002000	4.624715E-6
-6.996000	5.017966E-6
-6.990000	4.878384E-6
-6.984000	5.043345E-6
-6.978000	4.776870E-6
-6.972000	4.865695E-6
-6.966000	5.085603E-6
-6.960000	5.149050E-6
-6.954000	5.402835E-6
-6.948000	5.187117E-6
-6.942000	5.390146E-6
-6.936000	5.318201E-6
-6.930000	5.576178E-6
-6.924000	5.821465E-6
-6.918000	5.825772E-6
-6.912000	5.863840E-6
-6.906000	6.079441E-6
-6.900000	6.151386E-6
-6.894000	6.193644E-6
-6.888000	6.117509E-6
-6.882000	6.269780E-6
-6.876000	6.379792E-6
-6.870000	6.531947E-6
-6.864000	6.599701E-6
-6.858000	6.616581E-6
-6.852000	6.654649E-6
-6.846000	7.014140E-6
-6.840000	7.178984E-6
-6.834000	7.208670E-6
-6.828000	7.221359E-6
-6.822000	7.301685E-6
-6.816000	7.804949E-6
-6.810000	7.627299E-6
-6.804000	7.855706E-6
-6.798000	7.936032E-6
-6.792000	7.813447E-6
-6.786000	8.003670E-6
-6.780000	8.227886E-6
-6.774000	8.363160E-6
-6.768000	8.054427E-6
-6.762000	8.261646E-6
-6.756000	8.663395E-6
-6.750000	9.039883E-6
-6.744000	8.989125E-6
-6.738000	9.120209E-6
-6.732000	9.145588E-6
-6.726000	9.424635E-6
-6.720000	9.779935E-6
-6.714000	9.826384E-6
-6.708000	9.932206E-6
-6.702000	9.936397E-6
-6.696000	9.974465E-6
-6.690000	1.024932E-5
-6.684000	1.032127E-5
-6.678000	1.059193E-5
-6.672000	1.080753E-5
-6.666000	1.081184E-5
-6.660000	1.106551E-5
-6.654000	1.128123E-5
-6.648000	1.140393E-5
-6.642000	1.155189E-5
-6.636000	1.163222E-5
-6.630000	1.191138E-5
-6.624000	1.221162E-5
-6.618000	1.222012E-5
-6.612000	1.206785E-5
-6.606000	1.229194E-5
-6.600000	1.262187E-5
-6.594000	1.289672E-5
-6.588000	1.298136E-5
-6.582000	1.311244E-5
-6.576000	1.329428E-5
-6.570000	1.349300E-5
-6.564000	1.393282E-5
-6.558000	1.403014E-5
-6.552000	1.417391E-5
-6.546000	1.441501E-5
-6.540000	1.484214E-5
-6.534000	1.512549E-5
-6.528000	1.520163E-5
-6.522000	1.501548E-5
-6.516000	1.526927E-5
-6.510000	1.557800E-5
-6.503500	1.581479E-5
-6.497500	1.606008E-5
-6.491500	1.616159E-5
-6.485500	1.646182E-5
-6.479500	1.656753E-5
-6.473500	1.703703E-5
-6.467500	1.726963E-5
-6.461500	1.752761E-5
-6.455500	1.764600E-5
-6.449500	1.822959E-5
-6.443500	1.830992E-5
-6.437500	1.842412E-5
-6.431500	1.875404E-5
-6.425500	1.866522E-5
-6.419500	1.886394E-5
-6.413500	1.926150E-5
-6.407500	1.960830E-5
-6.401500	1.971400E-5
-6.395500	1.998048E-5
-6.389500	2.025953E-5
-6.383500	2.093194E-5
-6.377500	2.107583E-5
-6.371500	2.115616E-5
-6.365500	2.157059E-5
-6.359500	2.179900E-5
-6.353500	2.206536E-5
-6.347500	2.239097E-5
-6.341500	2.268702E-5
-6.335500	2.267864E-5
-6.329500	2.301694E-5
-6.323500	2.360472E-5
-6.317500	2.367666E-5
-6.311500	2.410798E-5
-6.305500	2.426445E-5
-6.299500	2.456899E-5
-6.293500	2.504687E-5
-6.287500	2.550788E-5
-6.281500	2.562208E-5
-6.275500	2.605759E-5
-6.269500	2.630288E-5
-6.263500	2.670893E-5
-6.257500	2.717413E-5
-6.251500	2.734747E-5
-6.245500	2.751243E-5
-6.239500	2.799882E-5
-6.233500	2.828636E-5
-6.227500	2.876425E-5
-6.221500	2.901803E-5
-6.215500	2.936902E-5
-6.209500	2.953818E-5
-6.203500	3.002875E-5
-6.197500	3.060815E-5
-6.191500	3.099290E-5
-6.185500	3.127626E-5
-6.179500	3.166543E-5
-6.173500	3.210944E-5
-6.167500	3.243086E-5
-6.161500	3.292144E-5
-6.155500	3.329781E-5
-6.149500	3.356428E-5
-6.143500	3.390259E-5
-6.137500	3.457919E-5
-6.131500	3.482029E-5
-6.125500	3.524323E-5
-6.119500	3.567454E-5
-6.113500	3.611017E-5
-6.107500	3.658375E-5
-6.101500	3.697712E-5
-6.095500	3.753114E-5
-6.089500	3.792869E-5
-6.083500	3.833463E-5
-6.077500	3.868993E-5
-6.071500	3.929459E-5
-6.065500	3.970065E-5
-6.059500	4.010240E-5
-6.053500	4.059297E-5
-6.047500	4.109205E-5
-6.041500	4.156993E-5
-6.035500	4.206051E-5
-6.029500	4.241569E-5
-6.023500	4.296552E-5
-6.017500	4.347297E-5
-6.011500	4.396774E-5
-6.005500	4.456402E-5
-5.999500	4.508847E-5
-5.993500	4.568475E-5
-5.987500	4.602736E-5
-5.981500	4.659407E-5
-5.975500	4.727917E-5
-5.969500	4.777813E-5
-5.963500	4.823494E-5
-5.957500	4.857325E-5
-5.951500	4.928792E-5
-5.945500	4.985463E-5
-5.939500	5.035370E-5
-5.933500	5.084847E-5
-5.927500	5.143636E-5
-5.921500	5.196489E-5
-5.915500	5.280226E-5
-5.909500	5.336897E-5
-5.903500	5.392719E-5
-5.897500	5.448970E-5
-5.891500	5.533546E-5
-5.885500	5.596562E-5
-5.879000	5.646050E-5
-5.873000	5.679880E-5
-5.867000	5.755574E-5
-5.861000	5.813944E-5
-5.855000	5.887530E-5
-5.849000	5.947158E-5
-5.843000	6.001291E-5
-5.837000	6.067683E-5
-5.831000	6.131118E-5
-5.825000	6.217393E-5
-5.819000	6.288441E-5
-5.813000	6.359071E-5
-5.807000	6.415311E-5
-5.801000	6.510469E-5
-5.795000	6.565871E-5
-5.789000	6.633112E-5
-5.783000	6.666942E-5
-5.777000	6.766745E-5
-5.771000	6.832299E-5
-5.765000	6.910542E-5
-5.759000	6.976095E-5
-5.753000	7.043756E-5
-5.747000	7.107609E-5
-5.741000	7.184164E-5
-5.735000	7.284386E-5
-5.729000	7.353327E-5
-5.723000	7.431139E-5
-5.717000	7.509801E-5
-5.711000	7.591420E-5
-5.705000	7.681071E-5
-5.699000	7.748324E-5
-5.693000	7.833319E-5
-5.687000	7.893378E-5
-5.681000	7.983879E-5
-5.675000	8.054927E-5
-5.669000	8.146698E-5
-5.663000	8.227478E-5
-5.657000	8.313742E-5
-5.651000	8.375919E-5
-5.645000	8.468959E-5
-5.639000	8.573837E-5
-5.633000	8.652918E-5
-5.627000	8.738344E-5
-5.621000	8.833921E-5
-5.615000	8.927810E-5
-5.609000	9.028462E-5
-5.603000	9.115576E-5
-5.597000	9.187474E-5
-5.591000	9.279244E-5
-5.585000	9.379897E-5
-5.579000	9.460247E-5
-5.573000	9.553717E-5
-5.567000	9.635335E-5
-5.561000	9.734288E-5
-5.555000	9.829865E-5
-5.549000	9.946164E-5
-5.543000	0.000100
-5.537000	0.000101
-5.531000	0.000102
-5.525000	0.000103
-5.519000	0.000104
-5.513000	0.000105
-5.507000	0.000106
-5.501000	0.000107
-5.495000	0.000108
-5.489000	0.000109
-5.483000	0.000110
-5.477000	0.000111
-5.471000	0.000112
-5.465000	0.000114
-5.459000	0.000115
-5.453000	0.000116
-5.447000	0.000117
-5.441000	0.000118
-5.435000	0.000119
-5.429000	0.000120
-5.423000	0.000121
-5.417000	0.000122
-5.411000	0.000123
-5.405000	0.000124
-5.399000	0.000126
-5.393000	0.000127
-5.387000	0.000128
-5.381000	0.000129
-5.375000	0.000130
-5.369000	0.000131
-5.363000	0.000133
-5.357000	0.000134
-5.351000	0.000135
-5.345000	0.000136
-5.339000	0.000137
-5.333000	0.000139
-5.327000	0.000140
-5.321000	0.000141
-5.315000	0.000142
-5.309000	0.000143
-5.303000	0.000144
-5.297000	0.000146
-5.291000	0.000147
-5.285000	0.000148
-5.279000	0.000149
-5.273000	0.000151
-5.267000	0.000152
-5.261000	0.000153
-5.254500	0.000154
-5.248500	0.000156
-5.242500	0.000157
-5.236500	0.000158
-5.230500	0.000159
-5.224500	0.000161
-5.218500	0.000162
-5.212500	0.000163
-5.206500	0.000164
-5.200500	0.000165
-5.194500	0.000167
-5.188500	0.000168
-5.182500	0.000169
-5.176500	0.000170
-5.170500	0.000172
-5.164500	0.000173
-5.158500	0.000174
-5.152500	0.000175
-5.146500	0.000176
-5.140500	0.000178
-5.134500	0.000179
-5.128500	0.000180
-5.122500	0.000181
-5.116500	0.000182
-5.110500	0.000183
-5.104500	0.000184
-5.098500	0.000186
-5.092500	0.000187
-5.086500	0.000188
-5.080500	0.000189
-5.074500	0.000190
-5.068500	0.000191
-5.062500	0.000192
-5.056500	0.000193
-5.050500	0.000194
-5.044500	0.000195
-5.038500	0.000196
-5.032500	0.000197
-5.026500	0.000198
-5.020500	0.000199
-5.014500	0.000200
-5.008500	0.000201
-5.002500	0.000202
-4.996500	0.000203
-4.990500	0.000203
-4.984500	0.000204
-4.978500	0.000205
-4.972500	0.000206
-4.966500	0.000207
-4.960500	0.000207
-4.954500	0.000208
-4.948500	0.000209
-4.942500	0.000209
-4.936500	0.000210
-4.930500	0.000211
-4.924500	0.000212
-4.918500	0.000212
-4.912500	0.000213
-4.906500	0.000213
-4.900500	0.000214
-4.894500	0.000215
-4.888500	0.000215
-4.882500	0.000216
-4.876500	0.000216
-4.870500	0.000217
-4.864500	0.000217
-4.858500	0.000218
-4.852500	0.000218
-4.846500	0.000219
-4.840500	0.000219
-4.834500	0.000220
-4.828500	0.000220
-4.822500	0.000220
-4.816500	0.000221
-4.810500	0.000221
-4.804500	0.000222
-4.798500	0.000222
-4.792500	0.000223
-4.786500	0.000223
-4.780500	0.000224
-4.774500	0.000224
-4.768500	0.000224
-4.762500	0.000225
-4.756500	0.000225
-4.750500	0.000226
-4.744500	0.000226
-4.738500	0.000226
-4.732500	0.000227
-4.726500	0.000227
-4.720500	0.000228
-4.714500	0.000228
-4.708500	0.000228
-4.702500	0.000229
-4.696500	0.000229
-4.690500	0.000230
-4.684500	0.000230
-4.678500	0.000230
-4.672500	0.000230
-4.666500	0.000231
-4.660500	0.000231
-4.654500	0.000232
-4.648500	0.000231
-4.642500	0.000232
-4.636500	0.000233
-4.630000	0.000233
-4.624000	0.000233
-4.618000	0.000234
-4.612000	0.000234
-4.606000	0.000234
-4.600000	0.000235
-4.594000	0.000235
-4.588000	0.000235
-4.582000	0.000236
-4.576000	0.000236
-4.570000	0.000236
-4.564000	0.000237
-4.558000	0.000237
-4.552000	0.000237
-4.546000	0.000237
-4.540000	0.000238
-4.534000	0.000238
-4.528000	0.000238
-4.522000	0.000239
-4.516000	0.000239
-4.510000	0.000239
-4.504000	0.000240
-4.498000	0.000240
-4.492000	0.000240
-4.486000	0.000240
-4.480000	0.000241
-4.474000	0.000241
-4.468000	0.000241
-4.462000	0.000242
-4.456000	0.000242
-4.450000	0.000242
-4.444000	0.000243
-4.438000	0.000243
-4.432000	0.000243
-4.426000	0.000243
-4.420000	0.000244
-4.414000	0.000244
-4.408000	0.000244
-4.402000	0.000245
-4.396000	0.000245
-4.390000	0.000245
-4.384000	0.000245
-4.378000	0.000246
-4.372000	0.000246
-4.366000	0.000246
-4.360000	0.000246
-4.354000	0.000247
-4.348000	0.000247
-4.342000	0.000247
-4.336000	0.000247
-4.330000	0.000248
-4.324000	0.000248
-4.318000	0.000248
-4.312000	0.000249
-4.306000	0.000249
-4.300000	0.000249
-4.294000	0.000249
-4.288000	0.000249
-4.282000	0.000250
-4.276000	0.000250
-4.270000	0.000250
-4.264000	0.000250
-4.258000	0.000251
-4.252000	0.000251
-4.246000	0.000251
-4.240000	0.000251
-4.234000	0.000252
-4.228000	0.000252
-4.222000	0.000252
-4.216000	0.000252
-4.210000	0.000253
-4.204000	0.000253
-4.198000	0.000253
-4.192000	0.000253
-4.186000	0.000254
-4.180000	0.000254
-4.174000	0.000254
-4.168000	0.000254
-4.162000	0.000255
-4.156000	0.000255
-4.150000	0.000255
-4.144000	0.000255
-4.138000	0.000256
-4.132000	0.000256
-4.126000	0.000256
-4.120000	0.000256
-4.114000	0.000256
-4.108000	0.000257
-4.102000	0.000257
-4.096000	0.000257
-4.090000	0.000257
-4.084000	0.000257
-4.078000	0.000257
-4.072000	0.000258
-4.066000	0.000258
-4.060000	0.000258
-4.054000	0.000258
-4.048000	0.000259
-4.042000	0.000259
-4.036000	0.000259
-4.030000	0.000259
-4.024000	0.000259
-4.018000	0.000260
-4.012000	0.000260
-4.005500	0.000260
-3.999500	0.000260
-3.993500	0.000260
-3.987500	0.000261
-3.981500	0.000261
-3.975500	0.000261
-3.969500	0.000261
-3.963500	0.000261
-3.957500	0.000262
-3.951500	0.000262
-3.945500	0.000262
-3.939500	0.000262
-3.933500	0.000262
-3.927500	0.000262
-3.921500	0.000263
-3.915500	0.000263
-3.909500	0.000263
-3.903500	0.000263
-3.897500	0.000263
-3.891500	0.000264
-3.885500	0.000264
-3.879500	0.000264
-3.873500	0.000264
-3.867500	0.000264
-3.861500	0.000265
-3.855500	0.000265
-3.849500	0.000265
-3.843500	0.000265
-3.837500	0.000265
-3.831500	0.000265
-3.825500	0.000266
-3.819500	0.000266
-3.813500	0.000266
-3.807500	0.000266
-3.801500	0.000266
-3.795500	0.000267
-3.789500	0.000267
-3.783500	0.000267
-3.777500	0.000267
-3.771500	0.000267
-3.765500	0.000267
-3.759500	0.000268
-3.753500	0.000268
-3.747500	0.000268
-3.741500	0.000268
-3.735500	0.000268
-3.729500	0.000268
-3.723500	0.000268
-3.717500	0.000268
-3.711500	0.000269
-3.705500	0.000269
-3.699500	0.000269
-3.693500	0.000269
-3.687500	0.000269
-3.681500	0.000270
-3.675500	0.000270
-3.669500	0.000270
-3.663500	0.000270
-3.657500	0.000270
-3.651500	0.000270
-3.645500	0.000270
-3.639500	0.000271
-3.633500	0.000271
-3.627500	0.000271
-3.621500	0.000271
-3.615500	0.000271
-3.609500	0.000272
-3.603500	0.000272
-3.597500	0.000272
-3.591500	0.000272
-3.585500	0.000272
-3.579500	0.000272
-3.573500	0.000272
-3.567500	0.000272
-3.561500	0.000272
-3.555500	0.000273
-3.549500	0.000273
-3.543500	0.000273
-3.537500	0.000273
-3.531500	0.000273
-3.525500	0.000273
-3.519500	0.000273
-3.513500	0.000274
-3.507500	0.000274
-3.501500	0.000274
-3.495500	0.000274
-3.489500	0.000275
-3.483500	0.000275
-3.477500	0.000275
-3.471500	0.000275
-3.465500	0.000275
-3.459500	0.000275
-3.453500	0.000275
-3.447500	0.000275
-3.441500	0.000275
-3.435500	0.000275
-3.429500	0.000276
-3.423500	0.000276
-3.417500	0.000276
-3.411500	0.000276
-3.405500	0.000276
-3.399500	0.000276
-3.393500	0.000277
-3.387500	0.000277
-3.381000	0.000277
-3.375000	0.000277
-3.369000	0.000277
-3.363000	0.000277
-3.357000	0.000277
-3.351000	0.000277
-3.345000	0.000277
-3.339000	0.000277
-3.333000	0.000278
-3.327000	0.000278
-3.321000	0.000278
-3.315000	0.000278
-3.309000	0.000278
-3.303000	0.000278
-3.297000	0.000279
-3.291000	0.000279
-3.285000	0.000279
-3.279000	0.000279
-3.273000	0.000279
-3.267000	0.000279
-3.261000	0.000279
-3.255000	0.000279
-3.249000	0.000279
-3.243000	0.000280
-3.237000	0.000280
-3.231000	0.000280
-3.225000	0.000280
-3.219000	0.000280
-3.213000	0.000281
-3.207000	0.000281
-3.201000	0.000281
-3.195000	0.000281
-3.189000	0.000281
-3.183000	0.000281
-3.177000	0.000281
-3.171000	0.000281
-3.165000	0.000281
-3.159000	0.000281
-3.153000	0.000281
-3.147000	0.000282
-3.141000	0.000282
-3.135000	0.000282
-3.129000	0.000282
-3.123000	0.000282
-3.117000	0.000282
-3.111000	0.000282
-3.105000	0.000282
-3.099000	0.000282
-3.093000	0.000282
-3.087000	0.000283
-3.081000	0.000283
-3.075000	0.000283
-3.069000	0.000283
-3.063000	0.000283
-3.057000	0.000283
-3.051000	0.000283
-3.045000	0.000283
-3.039000	0.000283
-3.033000	0.000284
-3.027000	0.000284
-3.021000	0.000284
-3.015000	0.000284
-3.009000	0.000284
-3.003000	0.000284
-2.997000	0.000284
-2.991000	0.000284
-2.985000	0.000284
-2.979000	0.000285
-2.973000	0.000285
-2.967000	0.000285
-2.961000	0.000285
-2.955000	0.000285
-2.949000	0.000285
-2.943000	0.000285
-2.937000	0.000285
-2.931000	0.000285
-2.925000	0.000286
-2.919000	0.000286
-2.913000	0.000286
-2.907000	0.000286
-2.901000	0.000286
-2.895000	0.000286
-2.889000	0.000286
-2.883000	0.000286
-2.877000	0.000286
-2.871000	0.000286
-2.865000	0.000287
-2.859000	0.000287
-2.853000	0.000287
-2.847000	0.000287
-2.841000	0.000287
-2.835000	0.000287
-2.829000	0.000287
-2.823000	0.000287
-2.817000	0.000287
-2.811000	0.000287
-2.805000	0.000287
-2.799000	0.000288
-2.793000	0.000288
-2.787000	0.000288
-2.781000	0.000288
-2.775000	0.000288
-2.769000	0.000288
-2.763000	0.000288
-2.756500	0.000288
-2.750500	0.000288
-2.744500	0.000289
-2.738500	0.000289
-2.732500	0.000289
-2.726500	0.000289
-2.720500	0.000289
-2.714500	0.000289
-2.708500	0.000289
-2.702500	0.000289
-2.696500	0.000289
-2.690500	0.000289
-2.684500	0.000289
-2.678500	0.000289
-2.672500	0.000290
-2.666500	0.000290
-2.660500	0.000290
-2.654500	0.000290
-2.648500	0.000290
-2.642500	0.000290
-2.636500	0.000290
-2.630500	0.000290
-2.624500	0.000290
-2.618500	0.000290
-2.612500	0.000290
-2.606500	0.000291
-2.600500	0.000291
-2.594500	0.000291
-2.588500	0.000291
-2.582500	0.000291
-2.576500	0.000291
-2.570500	0.000291
-2.564500	0.000291
-2.558500	0.000291
-2.552500	0.000291
-2.546500	0.000292
-2.540500	0.000291
-2.534500	0.000291
-2.528500	0.000292
-2.522500	0.000292
-2.516500	0.000292
-2.510500	0.000292
-2.504500	0.000292
-2.498500	0.000292
-2.492500	0.000292
-2.486500	0.000292
-2.480500	0.000292
-2.474500	0.000292
-2.468500	0.000292
-2.462500	0.000293
-2.456500	0.000293
-2.450500	0.000293
-2.444500	0.000293
-2.438500	0.000293
-2.432500	0.000293
-2.426500	0.000293
-2.420500	0.000293
-2.414500	0.000293
-2.408500	0.000293
-2.402500	0.000293
-2.396500	0.000294
-2.390500	0.000294
-2.384500	0.000294
-2.378500	0.000294
-2.372500	0.000294
-2.366500	0.000294
-2.360500	0.000294
-2.354500	0.000294
-2.348500	0.000294
-2.342500	0.000294
-2.336500	0.000294
-2.330500	0.000294
-2.324500	0.000294
-2.318500	0.000294
-2.312500	0.000294
-2.306500	0.000295
-2.300500	0.000295
-2.294500	0.000295
-2.288500	0.000295
-2.282500	0.000295
-2.276500	0.000295
-2.270500	0.000295
-2.264500	0.000295
-2.258500	0.000295
-2.252500	0.000295
-2.246500	0.000295
-2.240500	0.000295
-2.234500	0.000295
-2.228500	0.000296
-2.222500	0.000296
-2.216500	0.000296
-2.210500	0.000296
-2.204500	0.000296
-2.198500	0.000296
-2.192500	0.000296
-2.186500	0.000296
-2.180500	0.000296
-2.174500	0.000296
-2.168500	0.000296
-2.162500	0.000296
-2.156500	0.000296
-2.150500	0.000296
-2.144500	0.000297
-2.138500	0.000296
-2.132000	0.000297
-2.126000	0.000297
-2.120000	0.000297
-2.114000	0.000297
-2.108000	0.000297
-2.102000	0.000297
-2.096000	0.000297
-2.090000	0.000297
-2.084000	0.000298
-2.078000	0.000297
-2.072000	0.000297
-2.066000	0.000297
-2.060000	0.000298
-2.054000	0.000298
-2.048000	0.000297
-2.042000	0.000298
-2.036000	0.000298
-2.030000	0.000298
-2.024000	0.000298
-2.018000	0.000298
-2.012000	0.000298
-2.006000	0.000298
-2.000000	0.000298
-1.994000	0.000298
-1.988000	0.000298
-1.982000	0.000298
-1.976000	0.000298
-1.970000	0.000299
-1.964000	0.000299
-1.958000	0.000298
-1.952000	0.000298
-1.946000	0.000299
-1.940000	0.000299
-1.934000	0.000299
-1.928000	0.000299
-1.922000	0.000299
-1.916000	0.000299
-1.910000	0.000299
-1.904000	0.000299
-1.898000	0.000299
-1.892000	0.000300
-1.886000	0.000299
-1.880000	0.000299
-1.874000	0.000300
-1.868000	0.000300
-1.862000	0.000299
-1.856000	0.000300
-1.850000	0.000300
-1.844000	0.000300
-1.838000	0.000300
-1.832000	0.000300
-1.826000	0.000300
-1.820000	0.000300
-1.814000	0.000300
-1.808000	0.000300
-1.802000	0.000300
-1.796000	0.000300
-1.790000	0.000300
-1.784000	0.000300
-1.778000	0.000300
-1.772000	0.000301
-1.766000	0.000301
-1.760000	0.000301
-1.754000	0.000301
-1.748000	0.000301
-1.742000	0.000301
-1.736000	0.000301
-1.730000	0.000301
-1.724000	0.000301
-1.718000	0.000301
-1.712000	0.000301
-1.706000	0.000301
-1.700000	0.000301
-1.694000	0.000301
-1.688000	0.000301
-1.682000	0.000301
-1.676000	0.000302
-1.670000	0.000302
-1.664000	0.000302
-1.658000	0.000302
-1.652000	0.000302
-1.646000	0.000302
-1.640000	0.000302
-1.634000	0.000302
-1.628000	0.000302
-1.622000	0.000302
-1.616000	0.000302
-1.610000	0.000302
-1.604000	0.000302
-1.598000	0.000302
-1.592000	0.000302
-1.586000	0.000302
-1.580000	0.000302
-1.574000	0.000302
-1.568000	0.000303
-1.562000	0.000303
-1.556000	0.000303
-1.550000	0.000303
-1.544000	0.000303
-1.538000	0.000303
-1.532000	0.000303
-1.526000	0.000303
-1.520000	0.000303
-1.514000	0.000303
-1.507500	0.000303
-1.501500	0.000303
-1.495500	0.000303
-1.489500	0.000303
-1.483500	0.000303
-1.477500	0.000303
-1.471500	0.000303
-1.465500	0.000303
-1.459500	0.000303
-1.453500	0.000303
-1.447500	0.000304
-1.441500	0.000304
-1.435500	0.000304
-1.429500	0.000304
-1.423500	0.000304
-1.417500	0.000304
-1.411500	0.000304
-1.405500	0.000304
-1.399500	0.000304
-1.393500	0.000304
-1.387500	0.000304
-1.381500	0.000304
-1.375500	0.000304
-1.369500	0.000304
-1.363500	0.000304
-1.357500	0.000304
-1.351500	0.000305
-1.345500	0.000305
-1.339500	0.000305
-1.333500	0.000304
-1.327500	0.000304
-1.321500	0.000305
-1.315500	0.000305
-1.309500	0.000304
-1.303500	0.000304
-1.297500	0.000305
-1.291500	0.000305
-1.285500	0.000305
-1.279500	0.000305
-1.273500	0.000305
-1.267500	0.000305
-1.261500	0.000305
-1.255500	0.000305
-1.249500	0.000305
-1.243500	0.000305
-1.237500	0.000305
-1.231500	0.000305
-1.225500	0.000305
-1.219500	0.000305
-1.213500	0.000305
-1.207500	0.000305
-1.201500	0.000305
-1.195500	0.000306
-1.189500	0.000306
-1.183500	0.000306
-1.177500	0.000306
-1.171500	0.000306
-1.165500	0.000306
-1.159500	0.000306
-1.153500	0.000306
-1.147500	0.000306
-1.141500	0.000306
-1.135500	0.000306
-1.129500	0.000306
-1.123500	0.000306
-1.117500	0.000306
-1.111500	0.000306
-1.105500	0.000306
-1.099500	0.000306
-1.093500	0.000306
-1.087500	0.000306
-1.081500	0.000306
-1.075500	0.000306
-1.069500	0.000307
-1.063500	0.000307
-1.057500	0.000306
-1.051500	0.000306
-1.045500	0.000307
-1.039500	0.000307
-1.033500	0.000307
-1.027500	0.000307
-1.021500	0.000307
-1.015500	0.000307
-1.009500	0.000307
-1.003500	0.000307
-0.997500	0.000307
-0.991500	0.000307
-0.985500	0.000307
-0.979500	0.000307
-0.973500	0.000307
-0.967500	0.000307
-0.961500	0.000307
-0.955500	0.000307
-0.949500	0.000307
-0.943500	0.000307
-0.937500	0.000307
-0.931500	0.000307
-0.925500	0.000307
-0.919500	0.000307
-0.913500	0.000308
-0.907500	0.000308
-0.901500	0.000308
-0.895500	0.000308
-0.889500	0.000308
-0.883000	0.000308
-0.877000	0.000308
-0.871000	0.000308
-0.865000	0.000308
-0.859000	0.000308
-0.853000	0.000308
-0.847000	0.000308
-0.841000	0.000308
-0.835000	0.000308
-0.829000	0.000308
-0.823000	0.000308
-0.817000	0.000308
-0.811000	0.000308
-0.805000	0.000308
-0.799000	0.000308
-0.793000	0.000308
-0.787000	0.000308
-0.781000	0.000308
-0.775000	0.000308
-0.769000	0.000308
-0.763000	0.000308
-0.757000	0.000308
-0.751000	0.000309
-0.745000	0.000309
-0.739000	0.000309
-0.733000	0.000309
-0.727000	0.000309
-0.721000	0.000309
-0.715000	0.000309
-0.709000	0.000309
-0.703000	0.000309
-0.697000	0.000309
-0.691000	0.000309
-0.685000	0.000309
-0.679000	0.000309
-0.673000	0.000309
-0.667000	0.000309
-0.661000	0.000309
-0.655000	0.000309
-0.649000	0.000309
-0.643000	0.000309
-0.637000	0.000309
-0.631000	0.000309
-0.625000	0.000309
-0.619000	0.000309
-0.613000	0.000309
-0.607000	0.000309
-0.601000	0.000309
-0.595000	0.000309
-0.589000	0.000309
-0.583000	0.000310
-0.577000	0.000310
-0.571000	0.000310
-0.565000	0.000310
-0.559000	0.000310
-0.553000	0.000310
-0.547000	0.000310
-0.541000	0.000310
-0.535000	0.000310
-0.529000	0.000310
-0.523000	0.000310
-0.517000	0.000310
-0.511000	0.000310
-0.505000	0.000310
-0.499000	0.000310
-0.493000	0.000310
-0.487000	0.000310
-0.481000	0.000310
-0.475000	0.000310
-0.469000	0.000310
-0.463000	0.000310
-0.457000	0.000310
-0.451000	0.000310
-0.445000	0.000310
-0.439000	0.000310
-0.433000	0.000310
-0.427000	0.000310
-0.421000	0.000311
-0.415000	0.000311
-0.409000	0.000310
-0.403000	0.000310
-0.397000	0.000310
-0.391000	0.000311
-0.385000	0.000311
-0.379000	0.000310
-0.373000	0.000310
-0.367000	0.000311
-0.361000	0.000311
-0.355000	0.000311
-0.349000	0.000311
-0.343000	0.000311
-0.337000	0.000311
-0.331000	0.000311
-0.325000	0.000311
-0.319000	0.000311
-0.313000	0.000311
-0.307000	0.000311
-0.301000	0.000311
-0.295000	0.000311
-0.289000	0.000311
-0.283000	0.000311
-0.277000	0.000311
-0.271000	0.000311
-0.265000	0.000311
-0.258500	0.000311
-0.252500	0.000311
-0.246500	0.000311
-0.240500	0.000312
-0.234500	0.000312
-0.228500	0.000311
-0.222500	0.000311
-0.216500	0.000311
-0.210500	0.000312
-0.204500	0.000312
-0.198500	0.000311
-0.192500	0.000311
-0.186500	0.000311
-0.180500	0.000311
-0.174500	0.000312
-0.168500	0.000312
-0.162500	0.000312
-0.156500	0.000312
-0.150500	0.000312
-0.144500	0.000312
-0.138500	0.000312
-0.132500	0.000312
-0.126500	0.000312
-0.120500	0.000312
-0.114500	0.000312
-0.108500	0.000312
-0.102500	0.000312
-0.096500	0.000312
-0.090500	0.000312
-0.084500	0.000312
-0.078500	0.000312
-0.072500	0.000312
-0.066500	0.000312
-0.060500	0.000312
-0.054500	0.000312
-0.048500	0.000312
-0.042500	0.000312
-0.036500	0.000312
-0.030500	0.000312
-0.024500	0.000312
-0.018500	0.000312
-0.012500	0.000312
-0.006500	0.000312
-0.000500	0.000312
