% Langmuir characteristic curve

% U (Volt)	I (A)
-15.000000	-4.037283E-7
-14.994000	-3.445894E-7
-14.988000	-3.319001E-7
-14.982000	-6.702030E-7
-14.976000	-7.082708E-7
-14.970000	-6.194459E-7
-14.964000	-4.671747E-7
-14.958000	-6.236369E-7
-14.952000	-4.461035E-7
-14.946000	-6.702030E-7
-14.940000	-3.614696E-7
-14.934000	-4.249159E-7
-14.928000	-2.980232E-7
-14.922000	-3.699679E-7
-14.916000	-4.502945E-7
-14.910000	-6.279442E-7
-14.904000	-2.684537E-7
-14.898000	-4.883623E-7
-14.892000	-5.391194E-7
-14.886000	-6.152550E-7
-14.880000	-4.291069E-7
-14.874000	-5.010515E-7
-14.868000	-4.207250E-7
-14.862000	-4.164176E-7
-14.856000	-5.686888E-7
-14.850000	-5.603069E-7
-14.844000	-4.714821E-7
-14.838000	-4.587928E-7
-14.832000	-3.445894E-7
-14.826000	-3.275927E-7
-14.820000	-3.234018E-7
-14.814000	-3.699679E-7
-14.808000	-4.207250E-7
-14.802000	-6.279442E-7
-14.796000	-7.167691E-7
-14.790000	-5.306210E-7
-14.784000	-4.207250E-7
-14.778000	-7.040799E-7
-14.772000	-7.251510E-7
-14.766000	-6.025657E-7
-14.760000	-5.898764E-7
-14.754000	-1.330627E-7
-14.748000	-1.457520E-7
-14.742000	-3.741588E-7
-14.736000	-4.671747E-7
-14.730000	-3.699679E-7
-14.724000	-3.402820E-7
-14.718000	-3.699679E-7
-14.712000	-7.294584E-7
-14.706000	-6.406335E-7
-14.700000	-4.502945E-7
-14.694000	-3.319001E-7
-14.688000	-4.164176E-7
-14.682000	-4.207250E-7
-14.676000	-4.714821E-7
-14.670000	-3.529713E-7
-14.664000	-1.584413E-7
-14.658000	-3.360910E-7
-14.652000	-4.798640E-7
-14.645500	-5.222391E-7
-14.639500	-3.487803E-7
-14.633500	-4.164176E-7
-14.627500	-2.557645E-7
-14.621500	-7.124618E-7
-14.615500	-4.122267E-7
-14.609500	-4.841713E-7
-14.603500	-4.883623E-7
-14.597500	-4.164176E-7
-14.591500	-6.533228E-7
-14.585500	-4.968606E-7
-14.579500	-5.856855E-7
-14.573500	-2.769521E-7
-14.567500	-3.192108E-7
-14.561500	-5.264301E-7
-14.555500	-4.207250E-7
-14.549500	-8.230563E-8
-14.543500	-2.557645E-7
-14.537500	-1.330627E-7
-14.531500	-5.010515E-7
-14.525500	-4.376052E-7
-14.519500	-5.856855E-7
-14.513500	-3.572786E-7
-14.507500	-3.826572E-7
-14.501500	-3.656605E-7
-14.495500	-5.095499E-7
-14.489500	-4.334142E-7
-14.483500	-5.179318E-7
-14.477500	-3.487803E-7
-14.471500	-3.149034E-7
-14.465500	-4.207250E-7
-14.459500	-3.910391E-7
-14.453500	-1.584413E-7
-14.447500	-2.684537E-7
-14.441500	-4.502945E-7
-14.435500	-6.236369E-7
-14.429500	-4.376052E-7
-14.423500	-3.995374E-7
-14.417500	-4.756730E-7
-14.411500	-6.236369E-7
-14.405500	-8.139759E-7
-14.399500	-5.095499E-7
-14.393500	-6.448245E-7
-14.387500	-2.726447E-7
-14.381500	-4.122267E-7
-14.375500	-3.614696E-7
-14.369500	-3.783498E-7
-14.363500	-1.754379E-7
-14.357500	-1.330627E-7
-14.351500	-9.499490E-8
-14.345500	-7.040799E-7
-14.339500	-7.209601E-7
-14.333500	-4.291069E-7
-14.327500	-5.813781E-7
-14.321500	-5.983748E-7
-14.315500	-6.152550E-7
-14.309500	-4.756730E-7
-14.303500	-4.207250E-7
-14.297500	-4.502945E-7
-14.291500	-3.910391E-7
-14.285500	-2.135057E-7
-14.279500	-4.502945E-7
-14.273500	-4.080357E-7
-14.267500	-1.288718E-7
-14.261500	-4.249159E-7
-14.255500	-6.194459E-7
-14.249500	-4.334142E-7
-14.243500	-4.671747E-7
-14.237500	-5.264301E-7
-14.231500	-8.605421E-7
-14.225500	-7.802155E-7
-14.219500	-5.222391E-7
-14.213500	-6.194459E-7
-14.207500	-2.345769E-7
-14.201500	-3.529713E-7
-14.195500	-5.264301E-7
-14.189500	-4.544854E-7
-14.183500	-9.080395E-8
-14.177500	-2.599554E-7
-14.171500	-1.119915E-7
-14.165500	-5.686888E-7
-14.159500	-5.349284E-7
-14.153500	-2.769521E-7
-14.147500	-3.319001E-7
-14.141500	-4.629837E-7
-14.135500	-3.402820E-7
-14.129500	-2.515735E-7
-14.123500	-5.518086E-7
-14.117500	-2.430752E-7
-14.111500	-2.557645E-7
-14.105500	-4.417961E-7
-14.099500	-4.037283E-7
-14.093500	-6.828923E-7
-14.087500	-4.334142E-7
-14.081500	-3.953464E-7
-14.075500	-5.518086E-7
-14.069500	-5.518086E-7
-14.063500	-2.938323E-7
-14.057500	-3.953464E-7
-14.051500	-3.953464E-7
-14.045500	-8.690404E-7
-14.039500	-6.279442E-7
-14.033500	-5.898764E-7
-14.027500	-1.754379E-7
-14.021500	-2.430752E-7
-14.015500	-4.502945E-7
-14.009500	-5.518086E-7
-14.003500	-5.391194E-7
-13.997500	-1.288718E-7
-13.991500	-1.923181E-7
-13.985500	-2.938323E-7
-13.979500	-5.349284E-7
-13.973500	-5.813781E-7
-13.967500	-4.883623E-7
-13.961500	-4.671747E-7
-13.955500	-3.826572E-7
-13.949000	-5.940674E-7
-13.943000	-4.798640E-7
-13.937000	-2.008164E-7
-13.931000	-2.853340E-7
-13.925000	-4.249159E-7
-13.919000	-3.783498E-7
-13.913000	-3.699679E-7
-13.907000	-2.388842E-7
-13.901000	-3.402820E-7
-13.895000	-3.995374E-7
-13.889000	-4.883623E-7
-13.883000	-6.067567E-7
-13.877000	-2.853340E-7
-13.871000	-4.714821E-7
-13.865000	-5.222391E-7
-13.859000	-4.502945E-7
-13.853000	-5.306210E-7
-13.847000	-3.065215E-7
-13.841000	-1.330627E-7
-13.835000	-3.192108E-7
-13.829000	-4.502945E-7
-13.823000	-4.544854E-7
-13.817000	6.519258E-9
-13.811000	-1.584413E-7
-13.805000	-2.008164E-7
-13.799000	-6.955815E-7
-13.793000	-7.167691E-7
-13.787000	-4.291069E-7
-13.781000	-4.122267E-7
-13.775000	-3.572786E-7
-13.769000	-5.729962E-7
-13.763000	-5.306210E-7
-13.757000	-2.050074E-7
-13.751000	-2.769521E-7
-13.745000	-1.754379E-7
-13.739000	-4.037283E-7
-13.733000	-5.856855E-7
-13.727000	-2.980232E-7
-13.721000	-4.122267E-7
-13.715000	-3.614696E-7
-13.709000	-4.461035E-7
-13.703000	-6.236369E-7
-13.697000	-5.052425E-7
-13.691000	-4.841713E-7
-13.685000	-7.124618E-7
-13.679000	-5.391194E-7
-13.673000	-5.644979E-7
-13.667000	-5.391194E-7
-13.661000	-2.853340E-7
-13.655000	-2.980232E-7
-13.649000	-5.391194E-7
-13.643000	-4.544854E-7
-13.637000	-3.699679E-7
-13.631000	-4.122267E-7
-13.625000	-3.192108E-7
-13.619000	-4.291069E-7
-13.613000	-5.222391E-7
-13.607000	-4.080357E-7
-13.601000	-4.376052E-7
-13.595000	-6.870832E-7
-13.589000	-6.955815E-7
-13.583000	-7.209601E-7
-13.577000	-5.940674E-7
-13.571000	-2.726447E-7
-13.565000	-2.345769E-7
-13.559000	-3.699679E-7
-13.553000	-4.417961E-7
-13.547000	-5.349284E-7
-13.541000	-7.590279E-7
-13.535000	-4.207250E-7
-13.529000	-3.402820E-7
-13.523000	-5.179318E-7
-13.517000	-5.306210E-7
-13.511000	-4.417961E-7
-13.505000	-4.798640E-7
-13.499000	-1.373701E-7
-13.493000	-2.345769E-7
-13.487000	-3.741588E-7
-13.481000	-2.557645E-7
-13.475000	-4.629837E-7
-13.469000	-3.699679E-7
-13.463000	-4.207250E-7
-13.457000	-3.065215E-7
-13.451000	-3.868481E-7
-13.445000	-8.661300E-8
-13.439000	-2.430752E-7
-13.433000	-6.913906E-7
-13.427000	-5.644979E-7
-13.421000	-4.291069E-7
-13.415000	-4.798640E-7
-13.409000	-5.813781E-7
-13.403000	-6.110640E-7
-13.397000	-6.490154E-7
-13.391000	-3.614696E-7
-13.385000	-2.388842E-7
-13.379000	-1.838198E-7
-13.373000	-3.529713E-7
-13.367000	-3.741588E-7
-13.361000	-4.587928E-7
-13.355000	-4.334142E-7
-13.349000	-3.699679E-7
-13.343000	-5.433103E-7
-13.337000	-4.798640E-7
-13.331000	-4.756730E-7
-13.325000	-4.249159E-7
-13.319000	-3.275927E-7
-13.313000	-3.741588E-7
-13.307000	-4.629837E-7
-13.301000	-3.995374E-7
-13.295000	-3.275927E-7
-13.289000	-5.264301E-7
-13.283000	-4.417961E-7
-13.277000	-2.472661E-7
-13.271000	1.490116E-8
-13.265000	-2.557645E-7
-13.258500	-1.965091E-7
-13.252500	-5.095499E-7
-13.246500	-4.671747E-7
-13.240500	-6.067567E-7
-13.234500	-3.953464E-7
-13.228500	-5.559996E-7
-13.222500	-5.433103E-7
-13.216500	-5.940674E-7
-13.210500	-3.487803E-7
-13.204500	-1.373701E-7
-13.198500	-5.052425E-7
-13.192500	-5.349284E-7
-13.186500	-3.487803E-7
-13.180500	-2.735760E-8
-13.174500	-1.330627E-7
-13.168500	-2.896413E-7
-13.162500	-6.279442E-7
-13.156500	-3.656605E-7
-13.150500	-5.603069E-7
-13.144500	-3.741588E-7
-13.138500	-3.656605E-7
-13.132500	-3.487803E-7
-13.126500	-3.275927E-7
-13.120500	-5.010515E-7
-13.114500	-3.699679E-7
-13.108500	-2.980232E-7
-13.102500	-6.279442E-7
-13.096500	-3.910391E-7
-13.090500	-6.542541E-8
-13.084500	-2.515735E-7
-13.078500	-1.542503E-7
-13.072500	-2.557645E-7
-13.066500	-6.997725E-7
-13.060500	-3.402820E-7
-13.054500	-4.249159E-7
-13.048500	-4.291069E-7
-13.042500	-9.239884E-7
-13.036500	-6.870832E-7
-13.030500	-4.376052E-7
-13.024500	-1.584413E-7
-13.018500	-1.881272E-7
-13.012500	-4.291069E-7
-13.006500	-3.487803E-7
-13.000500	-3.487803E-7
-12.994500	-2.684537E-7
-12.988500	-2.642628E-7
-12.982500	-3.319001E-7
-12.976500	-4.714821E-7
-12.970500	-4.841713E-7
-12.964500	-2.599554E-7
-12.958500	-4.080357E-7
-12.952500	-3.783498E-7
-12.946500	-3.656605E-7
-12.940500	-3.953464E-7
-12.934500	-3.741588E-7
-12.928500	-3.868481E-7
-12.922500	-4.080357E-7
-12.916500	-2.135057E-7
-12.910500	-1.034932E-7
-12.904500	-5.137408E-7
-12.898500	-2.599554E-7
-12.892500	-1.881272E-7
-12.886500	-5.137408E-7
-12.880500	-6.490154E-7
-12.874500	-4.164176E-7
-12.868500	-3.783498E-7
-12.862500	-7.717172E-7
-12.856500	-8.605421E-7
-12.850500	-7.717172E-7
-12.844500	-8.661300E-8
-12.838500	-2.642628E-7
-12.832500	-3.360910E-7
-12.826500	-3.656605E-7
-12.820500	-4.461035E-7
-12.814500	-3.656605E-7
-12.808500	-3.826572E-7
-12.802500	-4.249159E-7
-12.796500	-5.391194E-7
-12.790500	-4.544854E-7
-12.784500	-4.334142E-7
-12.778500	-5.052425E-7
-12.772500	-5.095499E-7
-12.766500	-4.502945E-7
-12.760500	-4.461035E-7
-12.754500	-2.218876E-7
-12.748500	-1.457520E-7
-12.742500	-4.291069E-7
-12.736500	-5.052425E-7
-12.730500	-4.376052E-7
-12.724500	-6.110640E-7
-12.718500	-4.968606E-7
-12.712500	-3.783498E-7
-12.706500	-4.883623E-7
-12.700500	-3.910391E-7
-12.694500	-2.515735E-7
-12.688500	-3.953464E-7
-12.682500	-9.958167E-7
-12.676500	-7.548369E-7
-12.670500	-6.955815E-7
-12.664500	-5.898764E-7
-12.658500	-3.192108E-7
-12.652500	-3.529713E-7
-12.646500	-5.052425E-7
-12.640500	-3.953464E-7
-12.634500	-3.826572E-7
-12.628500	-3.910391E-7
-12.622500	-3.572786E-7
-12.616500	-5.095499E-7
-12.610500	-4.671747E-7
-12.604500	-5.603069E-7
-12.598500	-2.599554E-7
-12.592500	-4.037283E-7
-12.586500	-2.557645E-7
-12.580500	-6.067567E-7
-12.574500	-4.544854E-7
-12.568000	-3.065215E-7
-12.562000	-3.910391E-7
-12.556000	-3.360910E-7
-12.550000	-3.656605E-7
-12.544000	-3.192108E-7
-12.538000	-3.783498E-7
-12.532000	-3.487803E-7
-12.526000	-5.940674E-7
-12.520000	-3.192108E-7
-12.514000	-4.714821E-7
-12.508000	-3.445894E-7
-12.502000	-2.303859E-7
-12.496000	-8.351635E-7
-12.490000	-7.970957E-7
-12.484000	-7.590279E-7
-12.478000	-1.669396E-7
-12.472000	-1.838198E-7
-12.466000	-2.938323E-7
-12.460000	-3.445894E-7
-12.454000	-5.273614E-8
-12.448000	-3.022142E-7
-12.442000	-2.218876E-7
-12.436000	-4.461035E-7
-12.430000	-5.603069E-7
-12.424000	-5.222391E-7
-12.418000	-3.910391E-7
-12.412000	-3.614696E-7
-12.406000	-3.107125E-7
-12.400000	-7.040799E-7
-12.394000	-4.376052E-7
-12.388000	-3.022142E-7
-12.382000	-3.360910E-7
-12.376000	-3.868481E-7
-12.370000	-3.487803E-7
-12.364000	-3.614696E-7
-12.358000	-3.699679E-7
-12.352000	-2.599554E-7
-12.346000	-2.472661E-7
-12.340000	-4.841713E-7
-12.334000	-4.334142E-7
-12.328000	-4.164176E-7
-12.322000	-3.910391E-7
-12.316000	-8.182833E-7
-12.310000	-6.236369E-7
-12.304000	-6.067567E-7
-12.298000	-2.008164E-7
-12.292000	-1.965091E-7
-12.286000	-2.345769E-7
-12.280000	-3.107125E-7
-12.274000	-4.249159E-7
-12.268000	-5.692709E-8
-12.262000	-2.176967E-7
-12.256000	-4.417961E-7
-12.250000	-4.334142E-7
-12.244000	-5.433103E-7
-12.238000	-3.953464E-7
-12.232000	-4.714821E-7
-12.226000	-3.953464E-7
-12.220000	-4.291069E-7
-12.214000	-4.502945E-7
-12.208000	-3.868481E-7
-12.202000	-3.022142E-7
-12.196000	-2.896413E-7
-12.190000	-4.756730E-7
-12.184000	-5.264301E-7
-12.178000	-3.107125E-7
-12.172000	-3.995374E-7
-12.166000	-3.149034E-7
-12.160000	-5.729962E-7
-12.154000	-4.671747E-7
-12.148000	-4.671747E-7
-12.142000	-4.122267E-7
-12.136000	-2.345769E-7
-12.130000	-4.756730E-7
-12.124000	-3.995374E-7
-12.118000	-5.686888E-7
-12.112000	-2.515735E-7
-12.106000	-3.234018E-7
-12.100000	-4.122267E-7
-12.094000	-4.376052E-7
-12.088000	2.211891E-9
-12.082000	-1.965091E-7
-12.076000	-2.008164E-7
-12.070000	-4.968606E-7
-12.064000	-5.476177E-7
-12.058000	-2.599554E-7
-12.052000	-3.614696E-7
-12.046000	-4.037283E-7
-12.040000	-3.995374E-7
-12.034000	-3.656605E-7
-12.028000	-4.417961E-7
-12.022000	-4.461035E-7
-12.016000	-4.883623E-7
-12.010000	-4.164176E-7
-12.004000	-3.234018E-7
-11.998000	-7.336494E-7
-11.992000	-4.417961E-7
-11.986000	-4.291069E-7
-11.980000	-5.306210E-7
-11.974000	-4.207250E-7
-11.968000	-4.376052E-7
-11.962000	-4.291069E-7
-11.956000	-4.798640E-7
-11.950000	-8.182833E-7
-11.944000	-6.321352E-7
-11.938000	-5.052425E-7
-11.932000	-3.149034E-7
-11.926000	-3.529713E-7
-11.920000	-3.826572E-7
-11.914000	-3.529713E-7
-11.908000	-5.273614E-8
-11.902000	-1.885928E-8
-11.896000	-1.373701E-7
-11.890000	-5.095499E-7
-11.884000	-5.137408E-7
-11.878000	-4.968606E-7
-11.871500	-5.644979E-7
-11.865500	-3.741588E-7
-11.859500	-3.402820E-7
-11.853500	-5.391194E-7
-11.847500	-4.756730E-7
-11.841500	-2.811430E-7
-11.835500	-1.627486E-7
-11.829500	-4.714821E-7
-11.823500	-4.207250E-7
-11.817500	-2.303859E-7
-11.811500	-3.065215E-7
-11.805500	-4.037283E-7
-11.799500	-4.883623E-7
-11.793500	-6.787013E-7
-11.787500	-2.853340E-7
-11.781500	-3.741588E-7
-11.775500	-3.826572E-7
-11.769500	-3.953464E-7
-11.763500	-5.940674E-7
-11.757500	-5.433103E-7
-11.751500	-2.091983E-7
-11.745500	-2.303859E-7
-11.739500	-3.783498E-7
-11.733500	-3.614696E-7
-11.727500	-4.122267E-7
-11.721500	-7.811468E-8
-11.715500	-1.246808E-7
-11.709500	-3.065215E-7
-11.703500	-7.378403E-7
-11.697500	-5.518086E-7
-11.691500	-2.557645E-7
-11.685500	-4.883623E-7
-11.679500	-3.614696E-7
-11.673500	-1.881272E-7
-11.667500	-5.940674E-7
-11.661500	-1.881272E-7
-11.655500	-3.149034E-7
-11.649500	-2.726447E-7
-11.643500	-3.360910E-7
-11.637500	-3.572786E-7
-11.631500	-5.179318E-7
-11.625500	-4.968606E-7
-11.619500	-3.445894E-7
-11.613500	-4.461035E-7
-11.607500	-5.264301E-7
-11.601500	-4.122267E-7
-11.595500	-2.472661E-7
-11.589500	-5.010515E-7
-11.583500	-6.490154E-7
-11.577500	-5.940674E-7
-11.571500	-6.702030E-7
-11.565500	-1.923181E-7
-11.559500	-4.080357E-7
-11.553500	-2.980232E-7
-11.547500	-3.149034E-7
-11.541500	-1.076842E-7
-11.535500	-8.230563E-8
-11.529500	-1.373701E-7
-11.523500	-7.675262E-7
-11.517500	-5.179318E-7
-11.511500	-3.826572E-7
-11.505500	-3.614696E-7
-11.499500	-3.656605E-7
-11.493500	-5.052425E-7
-11.487500	-3.995374E-7
-11.481500	-4.461035E-7
-11.475500	-2.261950E-7
-11.469500	-3.487803E-7
-11.463500	-4.037283E-7
-11.457500	-3.192108E-7
-11.451500	-5.518086E-7
-11.445500	-4.207250E-7
-11.439500	-3.826572E-7
-11.433500	-4.968606E-7
-11.427500	-3.656605E-7
-11.421500	-4.417961E-7
-11.415500	-4.291069E-7
-11.409500	-3.910391E-7
-11.403500	-4.587928E-7
-11.397500	-4.841713E-7
-11.391500	-6.448245E-7
-11.385500	-4.291069E-7
-11.379500	-3.953464E-7
-11.373500	-6.321352E-7
-11.367500	-2.938323E-7
-11.361500	3.178138E-8
-11.355500	-4.854519E-8
-11.349500	-1.288718E-7
-11.343500	-5.856855E-7
-11.337500	-5.433103E-7
-11.331500	-5.856855E-7
-11.325500	-4.756730E-7
-11.319500	-3.529713E-7
-11.313500	-6.448245E-7
-11.307500	-4.249159E-7
-11.301500	-4.164176E-7
-11.295500	-2.218876E-7
-11.289500	-3.445894E-7
-11.283500	-3.192108E-7
-11.277500	-3.783498E-7
-11.271500	-4.502945E-7
-11.265500	-5.222391E-7
-11.259500	-4.037283E-7
-11.253500	-3.065215E-7
-11.247500	-5.137408E-7
-11.241500	-4.164176E-7
-11.235500	-4.334142E-7
-11.229500	-4.164176E-7
-11.223500	-9.028008E-7
-11.217500	-9.112991E-7
-11.211500	-4.798640E-7
-11.205500	-4.502945E-7
-11.199500	-1.119915E-7
-11.193500	-3.656605E-7
-11.187500	-3.529713E-7
-11.181000	-4.037283E-7
-11.175000	2.759043E-8
-11.169000	-1.288718E-7
-11.163000	-1.161825E-7
-11.157000	-6.660121E-7
-11.151000	-6.913906E-7
-11.145000	-4.291069E-7
-11.139000	-3.995374E-7
-11.133000	-3.614696E-7
-11.127000	-4.164176E-7
-11.121000	-4.207250E-7
-11.115000	-1.542503E-7
-11.109000	-2.303859E-7
-11.103000	-3.234018E-7
-11.097000	-3.360910E-7
-11.091000	-3.065215E-7
-11.085000	-5.222391E-7
-11.079000	-3.065215E-7
-11.073000	-3.826572E-7
-11.067000	-5.476177E-7
-11.061000	-5.010515E-7
-11.055000	-3.614696E-7
-11.049000	-3.868481E-7
-11.043000	-5.433103E-7
-11.037000	-6.152550E-7
-11.031000	-6.533228E-7
-11.025000	-6.194459E-7
-11.019000	-2.472661E-7
-11.013000	-5.940674E-7
-11.007000	-3.319001E-7
-11.001000	-4.629837E-7
-10.995000	-1.457520E-7
-10.989000	-2.430752E-7
-10.983000	-1.796288E-7
-10.977000	-5.983748E-7
-10.971000	-6.997725E-7
-10.965000	-3.741588E-7
-10.959000	-4.122267E-7
-10.953000	-5.306210E-7
-10.947000	-6.702030E-7
-10.941000	-6.870832E-7
-10.935000	-4.037283E-7
-10.929000	-2.345769E-7
-10.923000	-4.207250E-7
-10.917000	-3.192108E-7
-10.911000	-3.995374E-7
-10.905000	-5.603069E-7
-10.899000	-5.391194E-7
-10.893000	-2.050074E-7
-10.887000	-4.544854E-7
-10.881000	-5.095499E-7
-10.875000	-3.826572E-7
-10.869000	-3.656605E-7
-10.863000	-2.303859E-7
-10.857000	-2.091983E-7
-10.851000	-3.487803E-7
-10.845000	-4.122267E-7
-10.839000	-3.149034E-7
-10.833000	-2.726447E-7
-10.827000	-3.572786E-7
-10.821000	-3.319001E-7
-10.815000	1.376029E-7
-10.809000	-1.288718E-7
-10.803000	-9.930227E-8
-10.797000	-3.868481E-7
-10.791000	-6.279442E-7
-10.785000	-4.883623E-7
-10.779000	-4.122267E-7
-10.773000	-4.291069E-7
-10.767000	-1.203734E-7
-10.761000	-5.052425E-7
-10.755000	-5.010515E-7
-10.749000	-2.303859E-7
-10.743000	-2.261950E-7
-10.737000	-1.796288E-7
-10.731000	-3.234018E-7
-10.725000	-4.164176E-7
-10.719000	-2.642628E-7
-10.713000	-4.249159E-7
-10.707000	-2.811430E-7
-10.701000	-4.798640E-7
-10.695000	-5.559996E-7
-10.689000	-3.995374E-7
-10.683000	-4.080357E-7
-10.677000	-3.192108E-7
-10.671000	-2.091983E-7
-10.665000	-4.334142E-7
-10.659000	-2.515735E-7
-10.653000	-7.811468E-8
-10.647000	-3.529713E-7
-10.641000	-4.164176E-7
-10.635000	-3.826572E-7
-10.629000	-1.965091E-7
-10.623000	-2.735760E-8
-10.617000	-2.684537E-7
-10.611000	-5.306210E-7
-10.605000	-3.275927E-7
-10.599000	-3.360910E-7
-10.593000	-4.164176E-7
-10.587000	-4.334142E-7
-10.581000	-5.603069E-7
-10.575000	-3.614696E-7
-10.569000	-3.360910E-7
-10.563000	-2.769521E-7
-10.557000	-4.207250E-7
-10.551000	-3.529713E-7
-10.545000	-4.122267E-7
-10.539000	-4.587928E-7
-10.533000	-6.194459E-7
-10.527000	-3.065215E-7
-10.521000	-5.771872E-7
-10.515000	-3.868481E-7
-10.509000	-4.334142E-7
-10.503000	-4.207250E-7
-10.497000	-6.490154E-7
-10.491000	-5.095499E-7
-10.484500	-3.995374E-7
-10.478500	-1.754379E-7
-10.472500	-2.388842E-7
-10.466500	-3.319001E-7
-10.460500	-3.868481E-7
-10.454500	-6.533228E-7
-10.448500	2.211891E-9
-10.442500	-9.080395E-8
-10.436500	-1.330627E-7
-10.430500	-5.349284E-7
-10.424500	-6.955815E-7
-10.418500	-3.699679E-7
-10.412500	-4.334142E-7
-10.406500	-8.986099E-7
-10.400500	-6.828923E-7
-10.394500	-6.913906E-7
-10.388500	-5.813781E-7
-10.382500	-3.154855E-8
-10.376500	-2.557645E-7
-10.370500	-5.433103E-7
-10.364500	-4.207250E-7
-10.358500	-4.841713E-7
-10.352500	-4.080357E-7
-10.346500	-4.164176E-7
-10.340500	-4.502945E-7
-10.334500	-3.910391E-7
-10.328500	-4.334142E-7
-10.322500	-3.487803E-7
-10.316500	-3.572786E-7
-10.310500	-7.082708E-7
-10.304500	-7.040799E-7
-10.298500	-5.686888E-7
-10.292500	-2.811430E-7
-10.286500	-3.154855E-8
-10.280500	-3.319001E-7
-10.274500	-1.923181E-7
-10.268500	-3.360910E-7
-10.262500	-2.430752E-7
-10.256500	-1.838198E-7
-10.250500	-2.938323E-7
-10.244500	-7.209601E-7
-10.238500	-4.164176E-7
-10.232500	-3.826572E-7
-10.226500	-4.461035E-7
-10.220500	-6.152550E-7
-10.214500	-6.870832E-7
-10.208500	-6.025657E-7
-10.202500	-1.203734E-7
-10.196500	-1.754379E-7
-10.190500	-3.741588E-7
-10.184500	-3.319001E-7
-10.178500	-3.614696E-7
-10.172500	-3.529713E-7
-10.166500	-3.487803E-7
-10.160500	-3.149034E-7
-10.154500	-4.164176E-7
-10.148500	-4.883623E-7
-10.142500	-2.599554E-7
-10.136500	-5.306210E-7
-10.130500	-1.881272E-7
-10.124500	-3.319001E-7
-10.118500	-5.559996E-7
-10.112500	-2.769521E-7
-10.106500	-1.965091E-7
-10.100500	-3.614696E-7
-10.094500	-3.910391E-7
-10.088500	-3.149034E-7
-10.082500	-2.008164E-7
-10.076500	-3.065215E-7
-10.070500	-2.008164E-7
-10.064500	-6.025657E-7
-10.058500	-4.080357E-7
-10.052500	-4.883623E-7
-10.046500	-6.321352E-7
-10.040500	-8.774223E-7
-10.034500	-7.124618E-7
-10.028500	-6.025657E-7
-10.022500	-2.980232E-7
-10.016500	-2.896413E-7
-10.010500	-4.291069E-7
-10.004500	-2.176967E-7
-9.998500	-3.910391E-7
-9.992500	-3.487803E-7
-9.986500	-3.022142E-7
-9.980500	-3.192108E-7
-9.974500	-3.783498E-7
-9.968500	-5.940674E-7
-9.962500	-3.953464E-7
-9.956500	-3.487803E-7
-9.950500	-2.980232E-7
-9.944500	-3.360910E-7
-9.938500	-1.965091E-7
-9.932500	-4.544854E-7
-9.926500	-3.783498E-7
-9.920500	-2.599554E-7
-9.914500	-4.587928E-7
-9.908500	-3.107125E-7
-9.902500	-2.388842E-7
-9.896500	-3.319001E-7
-9.890500	-2.261950E-7
-9.884500	-5.983748E-7
-9.878500	-5.179318E-7
-9.872500	-5.179318E-7
-9.866500	-2.769521E-7
-9.860500	-3.910391E-7
-9.854500	-6.997725E-7
-9.848500	-8.478528E-7
-9.842500	-3.065215E-7
-9.836500	-3.275927E-7
-9.830500	-2.388842E-7
-9.824500	-3.192108E-7
-9.818500	-5.095499E-7
-9.812500	-3.868481E-7
-9.806500	-3.022142E-7
-9.800000	-2.599554E-7
-9.794000	-3.783498E-7
-9.788000	-4.798640E-7
-9.782000	-5.813781E-7
-9.776000	-2.176967E-7
-9.770000	-5.137408E-7
-9.764000	-6.067567E-7
-9.758000	-4.629837E-7
-9.752000	-4.841713E-7
-9.746000	-2.853340E-7
-9.740000	-4.037283E-7
-9.734000	-5.095499E-7
-9.728000	-4.925532E-7
-9.722000	-6.961636E-8
-9.716000	-8.661300E-8
-9.710000	-2.726447E-7
-9.704000	-5.179318E-7
-9.698000	-5.349284E-7
-9.692000	-2.811430E-7
-9.686000	-3.529713E-7
-9.680000	-3.234018E-7
-9.674000	-5.940674E-7
-9.668000	-4.291069E-7
-9.662000	-4.164176E-7
-9.656000	-3.107125E-7
-9.650000	-5.222391E-7
-9.644000	-1.754379E-7
-9.638000	-4.080357E-7
-9.632000	-2.345769E-7
-9.626000	-4.502945E-7
-9.620000	-3.910391E-7
-9.614000	-3.360910E-7
-9.608000	-4.714821E-7
-9.602000	-4.249159E-7
-9.596000	-2.135057E-7
-9.590000	-3.192108E-7
-9.584000	-7.209601E-7
-9.578000	-4.291069E-7
-9.572000	-5.306210E-7
-9.566000	-1.754379E-7
-9.560000	-3.953464E-7
-9.554000	-3.614696E-7
-9.548000	-1.838198E-7
-9.542000	1.586741E-7
-9.536000	1.079170E-7
-9.530000	-1.669396E-7
-9.524000	-4.334142E-7
-9.518000	-5.349284E-7
-9.512000	-5.222391E-7
-9.506000	-6.321352E-7
-9.500000	-3.275927E-7
-9.494000	-7.421477E-7
-9.488000	-6.955815E-7
-9.482000	-5.856855E-7
-9.476000	-8.230563E-8
-9.470000	-1.457520E-7
-9.464000	-1.965091E-7
-9.458000	-3.234018E-7
-9.452000	-2.980232E-7
-9.446000	-5.095499E-7
-9.440000	-3.275927E-7
-9.434000	-3.065215E-7
-9.428000	-5.433103E-7
-9.422000	-2.472661E-7
-9.416000	-4.756730E-7
-9.410000	-5.095499E-7
-9.404000	-6.236369E-7
-9.398000	-5.052425E-7
-9.392000	-5.856855E-7
-9.386000	-5.898764E-7
-9.380000	-1.881272E-7
-9.374000	-2.599554E-7
-9.368000	-2.726447E-7
-9.362000	-3.614696E-7
-9.356000	-1.076842E-7
-9.350000	-1.669396E-7
-9.344000	-1.754379E-7
-9.338000	-5.010515E-7
-9.332000	-5.644979E-7
-9.326000	-4.080357E-7
-9.320000	-3.953464E-7
-9.314000	-4.164176E-7
-9.308000	-5.306210E-7
-9.302000	-5.095499E-7
-9.296000	-1.965091E-7
-9.290000	-2.472661E-7
-9.284000	-4.122267E-7
-9.278000	-4.629837E-7
-9.272000	-4.291069E-7
-9.266000	-4.756730E-7
-9.260000	-4.756730E-7
-9.254000	-3.826572E-7
-9.248000	-4.037283E-7
-9.242000	-4.798640E-7
-9.236000	-4.841713E-7
-9.230000	-1.923181E-7
-9.224000	-3.656605E-7
-9.218000	-4.417961E-7
-9.212000	-4.037283E-7
-9.206000	-5.559996E-7
-9.200000	-1.965091E-7
-9.194000	-2.938323E-7
-9.188000	-3.614696E-7
-9.182000	-2.853340E-7
-9.176000	-4.004687E-8
-9.170000	-1.076842E-7
-9.164000	-3.995374E-7
-9.158000	-6.110640E-7
-9.152000	-5.983748E-7
-9.146000	-3.953464E-7
-9.140000	-5.052425E-7
-9.134000	-5.010515E-7
-9.128000	-3.783498E-7
-9.122000	-4.037283E-7
-9.116000	-4.756730E-7
-9.109500	-3.192108E-7
-9.103500	-3.022142E-7
-9.097500	-3.656605E-7
-9.091500	-2.388842E-7
-9.085500	-6.448245E-7
-9.079500	-2.684537E-7
-9.073500	-3.699679E-7
-9.067500	-2.515735E-7
-9.061500	-4.544854E-7
-9.055500	-3.953464E-7
-9.049500	-2.050074E-7
-9.043500	-3.192108E-7
-9.037500	-7.675262E-7
-9.031500	-3.614696E-7
-9.025500	-6.533228E-7
-9.019500	-3.275927E-7
-9.013500	-1.373701E-7
-9.007500	-3.192108E-7
-9.001500	-3.402820E-7
-8.995500	2.759043E-8
-8.989500	-1.246808E-7
-8.983500	-9.080395E-8
-8.977500	-2.642628E-7
-8.971500	-5.856855E-7
-8.965500	-4.798640E-7
-8.959500	-3.360910E-7
-8.953500	-3.741588E-7
-8.947500	-3.065215E-7
-8.941500	-1.881272E-7
-8.935500	-6.152550E-7
-8.929500	-3.022142E-7
-8.923500	-3.192108E-7
-8.917500	-2.430752E-7
-8.911500	-3.487803E-7
-8.905500	-3.065215E-7
-8.899500	-2.557645E-7
-8.893500	-2.684537E-7
-8.887500	-4.841713E-7
-8.881500	-4.417961E-7
-8.875500	-3.826572E-7
-8.869500	-3.445894E-7
-8.863500	-3.360910E-7
-8.857500	-4.925532E-7
-8.851500	-2.853340E-7
-8.845500	-3.868481E-7
-8.839500	-4.841713E-7
-8.833500	-1.979060E-9
-8.827500	-3.953464E-7
-8.821500	-2.769521E-7
-8.815500	-2.726447E-7
-8.809500	1.920853E-8
-8.803500	-6.961636E-8
-8.797500	-1.881272E-7
-8.791500	-5.603069E-7
-8.785500	-3.699679E-7
-8.779500	-3.149034E-7
-8.773500	-3.234018E-7
-8.767500	-3.826572E-7
-8.761500	-7.336494E-7
-8.755500	-5.391194E-7
-8.749500	-3.529713E-7
-8.743500	-1.330627E-7
-8.737500	-2.218876E-7
-8.731500	-3.529713E-7
-8.725500	-3.445894E-7
-8.719500	-3.487803E-7
-8.713500	-2.726447E-7
-8.707500	-3.868481E-7
-8.701500	-3.783498E-7
-8.695500	-3.360910E-7
-8.689500	-3.149034E-7
-8.683500	-3.656605E-7
-8.677500	-4.461035E-7
-8.671500	-5.010515E-7
-8.665500	-5.898764E-7
-8.659500	-5.433103E-7
-8.653500	-1.881272E-7
-8.647500	-2.008164E-7
-8.641500	-3.192108E-7
-8.635500	-1.457520E-7
-8.629500	4.877802E-8
-8.623500	-1.047738E-8
-8.617500	-1.584413E-7
-8.611500	-5.856855E-7
-8.605500	-5.052425E-7
-8.599500	-2.938323E-7
-8.593500	-3.402820E-7
-8.587500	-1.965091E-7
-8.581500	-2.430752E-7
-8.575500	-3.995374E-7
-8.569500	-5.983748E-7
-8.563500	-1.246808E-7
-8.557500	-3.065215E-7
-8.551500	-4.291069E-7
-8.545500	-3.995374E-7
-8.539500	-4.925532E-7
-8.533500	-2.684537E-7
-8.527500	-3.995374E-7
-8.521500	-4.291069E-7
-8.515500	-4.714821E-7
-8.509500	-3.868481E-7
-8.503500	-4.629837E-7
-8.497500	-3.614696E-7
-8.491500	-5.771872E-7
-8.485500	-4.841713E-7
-8.479500	-3.529713E-7
-8.473500	-6.542541E-8
-8.467500	-1.796288E-7
-8.461500	-3.319001E-7
-8.455500	-4.291069E-7
-8.449500	-3.445894E-7
-8.443500	1.920853E-8
-8.437500	-6.123446E-8
-8.431500	-3.234018E-7
-8.425500	-5.179318E-7
-8.419000	-5.686888E-7
-8.413000	-3.107125E-7
-8.407000	-3.149034E-7
-8.401000	-4.080357E-7
-8.395000	-6.279442E-7
-8.389000	-3.656605E-7
-8.383000	-2.896413E-7
-8.377000	-2.430752E-7
-8.371000	-2.430752E-7
-8.365000	-3.192108E-7
-8.359000	-2.769521E-7
-8.353000	-3.953464E-7
-8.347000	-2.430752E-7
-8.341000	-2.980232E-7
-8.335000	-4.883623E-7
-8.329000	-4.417961E-7
-8.323000	-4.207250E-7
-8.317000	-3.192108E-7
-8.311000	-6.194459E-7
-8.305000	-5.095499E-7
-8.299000	-3.614696E-7
-8.293000	-2.642628E-7
-8.287000	-2.091983E-7
-8.281000	-2.599554E-7
-8.275000	-2.896413E-7
-8.269000	-2.515735E-7
-8.263000	3.608875E-8
-8.257000	-1.796288E-7
-8.251000	-1.923181E-7
-8.245000	-5.856855E-7
-8.239000	-3.445894E-7
-8.233000	-2.811430E-7
-8.227000	-3.699679E-7
-8.221000	-4.502945E-7
-8.215000	-5.179318E-7
-8.209000	-3.275927E-7
-8.203000	-3.487803E-7
-8.197000	-2.135057E-7
-8.191000	-2.980232E-7
-8.185000	-3.402820E-7
-8.179000	-2.938323E-7
-8.173000	-1.542503E-7
-8.167000	-3.656605E-7
-8.161000	-2.515735E-7
-8.155000	-4.629837E-7
-8.149000	-4.417961E-7
-8.143000	-3.953464E-7
-8.137000	-4.587928E-7
-8.131000	-6.448245E-7
-8.125000	-5.644979E-7
-8.119000	-6.617047E-7
-8.113000	-5.391194E-7
-8.107000	-2.769521E-7
-8.101000	-2.430752E-7
-8.095000	-3.445894E-7
-8.089000	-3.149034E-7
-8.083000	-7.811468E-8
-8.077000	-2.769521E-7
-8.071000	-2.684537E-7
-8.065000	-5.433103E-7
-8.059000	-6.152550E-7
-8.053000	-3.234018E-7
-8.047000	-4.841713E-7
-8.041000	-2.853340E-7
-8.035000	-3.783498E-7
-8.029000	-4.629837E-7
-8.023000	-4.798640E-7
-8.017000	-3.741588E-7
-8.011000	-2.472661E-7
-8.005000	-2.896413E-7
-7.999000	-1.330627E-7
-7.993000	-1.881272E-7
-7.987000	-3.107125E-7
-7.981000	-2.557645E-7
-7.975000	-2.388842E-7
-7.969000	-4.714821E-7
-7.963000	-3.402820E-7
-7.957000	-5.264301E-7
-7.951000	-3.572786E-7
-7.945000	-3.234018E-7
-7.939000	-5.095499E-7
-7.933000	-3.910391E-7
-7.927000	-2.050074E-7
-7.921000	-1.161825E-7
-7.915000	-4.122267E-7
-7.909000	-2.684537E-7
-7.903000	-2.176967E-7
-7.897000	-1.288718E-7
-7.891000	-3.614696E-7
-7.885000	-1.288718E-7
-7.879000	-4.883623E-7
-7.873000	-4.376052E-7
-7.867000	-2.938323E-7
-7.861000	-2.642628E-7
-7.855000	-6.575137E-7
-7.849000	-5.729962E-7
-7.843000	-2.726447E-7
-7.837000	-9.080395E-8
-7.831000	-1.034932E-7
-7.825000	-2.430752E-7
-7.819000	-3.275927E-7
-7.813000	-4.207250E-7
-7.807000	-2.261950E-7
-7.801000	-3.022142E-7
-7.795000	-1.246808E-7
-7.789000	-3.656605E-7
-7.783000	-3.910391E-7
-7.777000	-3.275927E-7
-7.771000	-3.234018E-7
-7.765000	-4.122267E-7
-7.759000	-3.995374E-7
-7.752500	-3.572786E-7
-7.746500	-2.853340E-7
-7.740500	-2.050074E-7
-7.734500	-3.107125E-7
-7.728500	-3.022142E-7
-7.722500	-3.572786E-7
-7.716500	6.984919E-8
-7.710500	1.291046E-7
-7.704500	-3.107125E-7
-7.698500	-5.264301E-7
-7.692500	-3.995374E-7
-7.686500	-3.529713E-7
-7.680500	-4.461035E-7
-7.674500	-3.445894E-7
-7.668500	-4.164176E-7
-7.662500	-4.671747E-7
-7.656500	-2.853340E-7
-7.650500	-2.472661E-7
-7.644500	-3.149034E-7
-7.638500	-3.995374E-7
-7.632500	-3.149034E-7
-7.626500	7.834751E-8
-7.620500	-1.034932E-7
-7.614500	-1.500593E-7
-7.608500	-4.968606E-7
-7.602500	-4.714821E-7
-7.596500	-2.769521E-7
-7.590500	-3.360910E-7
-7.584500	-4.080357E-7
-7.578500	-2.515735E-7
-7.572500	-3.572786E-7
-7.566500	-5.095499E-7
-7.560500	-3.487803E-7
-7.554500	-4.004687E-8
-7.548500	-3.360910E-7
-7.542500	-3.826572E-7
-7.536500	1.079170E-7
-7.530500	-2.316665E-8
-7.524500	1.920853E-8
-7.518500	-2.896413E-7
-7.512500	-4.334142E-7
-7.506500	-3.868481E-7
-7.500500	-4.417961E-7
-7.494500	-3.741588E-7
-7.488500	-6.660121E-7
-7.482500	-7.294584E-7
-7.476500	-6.617047E-7
-7.470500	-1.203734E-7
-7.464500	-1.203734E-7
-7.458500	-2.050074E-7
-7.452500	-3.487803E-7
-7.446500	-1.330627E-7
-7.440500	-1.373701E-7
-7.434500	-1.965091E-7
-7.428500	-3.826572E-7
-7.422500	-4.461035E-7
-7.416500	-3.529713E-7
-7.410500	-4.756730E-7
-7.404500	-4.756730E-7
-7.398500	-3.572786E-7
-7.392500	-3.149034E-7
-7.386500	-5.518086E-7
-7.380500	-8.230563E-8
-7.374500	-1.669396E-7
-7.368500	-2.218876E-7
-7.362500	-2.261950E-7
-7.356500	-5.692709E-8
-7.350500	-4.004687E-8
-7.344500	-8.230563E-8
-7.338500	-1.330627E-7
-7.332500	-4.417961E-7
-7.326500	-4.291069E-7
-7.320500	-1.542503E-7
-7.314500	-3.741588E-7
-7.308500	-5.983748E-7
-7.302500	-6.194459E-7
-7.296500	-6.194459E-7
-7.290500	-3.154855E-8
-7.284500	-1.415610E-7
-7.278500	-3.149034E-7
-7.272500	-2.472661E-7
-7.266500	-9.930227E-8
-7.260500	-3.360910E-7
-7.254500	-2.557645E-7
-7.248500	-5.349284E-7
-7.242500	-3.699679E-7
-7.236500	-3.402820E-7
-7.230500	-3.192108E-7
-7.224500	-4.164176E-7
-7.218500	-2.135057E-7
-7.212500	-1.542503E-7
-7.206500	-3.910391E-7
-7.200500	4.447065E-8
-7.194500	-3.107125E-7
-7.188500	-2.091983E-7
-7.182500	-3.149034E-7
-7.176500	-2.515735E-7
-7.170500	-3.319001E-7
-7.164500	-3.572786E-7
-7.158500	-1.711305E-7
-7.152500	-3.741588E-7
-7.146500	-2.091983E-7
-7.140500	-3.022142E-7
-7.134500	-4.291069E-7
-7.128000	-8.436618E-7
-7.122000	-7.167691E-7
-7.116000	-6.702030E-7
-7.110000	-2.218876E-7
-7.104000	-2.735760E-8
-7.098000	-3.107125E-7
-7.092000	-2.261950E-7
-7.086000	-3.826572E-7
-7.080000	-3.022142E-7
-7.074000	-2.091983E-7
-7.068000	-3.022142E-7
-7.062000	-4.122267E-7
-7.056000	-4.376052E-7
-7.050000	-3.529713E-7
-7.044000	-4.122267E-7
-7.038000	-4.122267E-7
-7.032000	-4.671747E-7
-7.026000	-4.207250E-7
-7.020000	-4.334142E-7
-7.014000	-4.004687E-8
-7.008000	-1.796288E-7
-7.002000	-4.004687E-8
-6.996000	-2.388842E-7
-6.990000	-2.303859E-7
-6.984000	-1.838198E-7
-6.978000	-2.896413E-7
-6.972000	-3.741588E-7
-6.966000	-3.910391E-7
-6.960000	-4.037283E-7
-6.954000	-2.769521E-7
-6.948000	-3.402820E-7
-6.942000	-6.743940E-7
-6.936000	-3.572786E-7
-6.930000	-5.264301E-7
-6.924000	-6.542541E-8
-6.918000	-1.885928E-8
-6.912000	-1.923181E-7
-6.906000	-2.218876E-7
-6.900000	8.253846E-8
-6.894000	-9.080395E-8
-6.888000	1.376029E-7
-6.882000	-2.853340E-7
-6.876000	-4.544854E-7
-6.870000	-3.022142E-7
-6.864000	-1.669396E-7
-6.858000	-3.445894E-7
-6.852000	-4.334142E-7
-6.846000	-2.811430E-7
-6.840000	-1.711305E-7
-6.834000	-1.542503E-7
-6.828000	-1.500593E-7
-6.822000	-1.047738E-8
-6.816000	-1.203734E-7
-6.810000	-1.466833E-8
-6.804000	-1.203734E-7
-6.798000	-9.080395E-8
-6.792000	-1.034932E-7
-6.786000	-4.037283E-7
-6.780000	-1.965091E-7
-6.774000	-6.542541E-8
-6.768000	-3.234018E-7
-6.762000	-5.264301E-7
-6.756000	-4.714821E-7
-6.750000	-4.080357E-7
-6.744000	3.608875E-8
-6.738000	2.211891E-9
-6.732000	-2.726447E-7
-6.726000	-1.415610E-7
-6.720000	1.713634E-7
-6.714000	-3.154855E-8
-6.708000	-2.735760E-8
-6.702000	-1.979060E-9
-6.696000	-4.968606E-7
-6.690000	-2.515735E-7
-6.684000	-1.542503E-7
-6.678000	-2.735760E-8
-6.672000	-1.542503E-7
-6.666000	-2.896413E-7
-6.660000	-3.402820E-7
-6.654000	-2.980232E-7
-6.648000	8.684583E-8
-6.642000	-1.881272E-7
-6.636000	-2.388842E-7
-6.630000	-1.330627E-7
-6.624000	-3.107125E-7
-6.618000	-2.218876E-7
-6.612000	-1.415610E-7
-6.606000	-3.402820E-7
-6.600000	-2.684537E-7
-6.594000	-1.330627E-7
-6.588000	-5.273614E-8
-6.582000	-4.417961E-7
-6.576000	-4.334142E-7
-6.570000	-4.798640E-7
-6.564000	-2.684537E-7
-6.558000	2.211891E-9
-6.552000	-1.415610E-7
-6.546000	-1.161825E-7
-6.540000	-6.542541E-8
-6.534000	4.027970E-8
-6.528000	1.164153E-7
-6.522000	-3.585592E-8
-6.516000	-2.388842E-7
-6.510000	-3.022142E-7
-6.503500	-2.811430E-7
-6.497500	-1.076842E-7
-6.491500	-1.584413E-7
-6.485500	-4.423782E-8
-6.479500	-2.316665E-8
-6.473500	-2.430752E-7
-6.467500	3.178138E-8
-6.461500	7.415656E-8
-6.455500	-1.047738E-8
-6.449500	-6.170012E-9
-6.443500	6.565824E-8
-6.437500	1.037261E-7
-6.431500	2.211891E-9
-6.425500	-1.669396E-7
-6.419500	-1.076842E-7
-6.413500	-1.542503E-7
-6.407500	-2.135057E-7
-6.401500	-1.754379E-7
-6.395500	-3.995374E-7
-6.389500	-2.472661E-7
-6.383500	-1.796288E-7
-6.377500	1.840526E-7
-6.371500	4.877802E-8
-6.365500	1.920853E-8
-6.359500	3.178138E-8
-6.353500	1.376029E-7
-6.347500	1.713634E-7
-6.341500	2.474990E-7
-6.335500	-1.711305E-7
-6.329500	-1.466833E-8
-6.323500	-1.373701E-7
-6.317500	-4.423782E-8
-6.311500	-3.585592E-8
-6.305500	1.920853E-8
-6.299500	1.249136E-7
-6.293500	4.877802E-8
-6.287500	1.502922E-7
-6.281500	6.984919E-8
-6.275500	2.897577E-7
-6.269500	7.415656E-8
-6.263500	1.122244E-7
-6.257500	1.967419E-7
-6.251500	-8.230563E-8
-6.245500	8.684583E-8
-6.239500	1.037261E-7
-6.233500	1.249136E-7
-6.227500	1.376029E-7
-6.221500	1.291046E-7
-6.215500	8.253846E-8
-6.209500	7.415656E-8
-6.203500	3.608875E-8
-6.197500	1.883600E-7
-6.191500	3.405148E-7
-6.185500	3.785826E-7
-6.179500	1.629815E-7
-6.173500	1.586741E-7
-6.167500	5.520415E-7
-6.161500	3.828900E-7
-6.155500	3.912719E-7
-6.149500	7.834751E-8
-6.143500	3.608875E-8
-6.137500	1.840526E-7
-6.131500	2.728775E-7
-6.125500	4.166504E-7
-6.119500	1.376029E-7
-6.113500	1.206063E-7
-6.107500	2.813758E-7
-6.101500	5.562324E-7
-6.095500	3.870809E-7
-6.089500	4.251488E-7
-6.083500	3.490131E-7
-6.077500	3.702007E-7
-6.071500	1.883600E-7
-6.065500	3.702007E-7
-6.059500	3.194436E-7
-6.053500	3.997702E-7
-6.047500	3.785826E-7
-6.041500	3.785826E-7
-6.035500	2.263114E-7
-6.029500	2.855668E-7
-6.023500	3.363239E-7
-6.017500	3.109453E-7
-6.011500	6.365590E-7
-6.005500	5.139736E-7
-5.999500	5.647307E-7
-5.993500	4.124595E-7
-5.987500	9.367941E-7
-5.981500	7.592607E-7
-5.975500	8.437783E-7
-5.969500	4.674075E-7
-5.963500	4.166504E-7
-5.957500	5.266629E-7
-5.951500	4.124595E-7
-5.945500	5.647307E-7
-5.939500	5.984912E-7
-5.933500	6.492482E-7
-5.927500	7.634517E-7
-5.921500	7.972121E-7
-5.915500	6.492482E-7
-5.909500	7.972121E-7
-5.903500	8.099014E-7
-5.897500	6.492482E-7
-5.891500	7.930212E-7
-5.885500	1.025619E-6
-5.879000	8.437783E-7
-5.873000	7.041963E-7
-5.867000	7.845229E-7
-5.861000	9.114156E-7
-5.855000	8.015195E-7
-5.849000	6.238697E-7
-5.843000	6.577466E-7
-5.837000	7.000053E-7
-5.831000	1.342734E-6
-5.825000	1.067878E-6
-5.819000	1.118635E-6
-5.813000	1.042499E-6
-5.807000	1.380802E-6
-5.801000	8.733477E-7
-5.795000	1.186272E-6
-5.789000	1.034117E-6
-5.783000	9.367941E-7
-5.777000	1.122942E-6
-5.771000	1.249718E-6
-5.765000	1.232838E-6
-5.759000	1.050998E-6
-5.753000	8.649658E-7
-5.747000	1.080567E-6
-5.741000	1.621898E-6
-5.735000	1.562643E-6
-5.729000	1.490815E-6
-5.723000	1.435867E-6
-5.717000	1.473934E-6
-5.711000	1.465436E-6
-5.705000	1.647277E-6
-5.699000	1.693727E-6
-5.693000	1.359731E-6
-5.687000	1.524575E-6
-5.681000	1.791050E-6
-5.675000	1.727603E-6
-5.669000	1.727603E-6
-5.663000	1.685345E-6
-5.657000	1.668464E-6
-5.651000	1.845998E-6
-5.645000	2.032029E-6
-5.639000	1.985580E-6
-5.633000	2.129353E-6
-5.627000	1.968700E-6
-5.621000	2.260436E-6
-5.615000	2.395711E-6
-5.609000	2.158922E-6
-5.603000	1.934823E-6
-5.597000	1.841807E-6
-5.591000	2.192799E-6
-5.585000	2.383138E-6
-5.579000	1.875567E-6
-5.573000	2.061715E-6
-5.567000	1.968700E-6
-5.561000	2.328074E-6
-5.555000	2.700253E-6
-5.549000	2.619927E-6
-5.543000	2.560671E-6
-5.537000	2.501532E-6
-5.531000	2.924353E-6
-5.525000	2.991990E-6
-5.519000	2.835528E-6
-5.513000	2.670684E-6
-5.507000	2.742512E-6
-5.501000	2.915971E-6
-5.495000	2.991990E-6
-5.489000	2.856716E-6
-5.483000	3.173831E-6
-5.477000	3.114692E-6
-5.471000	3.059744E-6
-5.465000	3.186520E-6
-5.459000	3.245776E-6
-5.453000	3.368361E-6
-5.447000	3.507943E-6
-5.441000	3.503752E-6
-5.435000	3.529130E-6
-5.429000	3.698282E-6
-5.423000	3.427616E-6
-5.417000	3.681285E-6
-5.411000	3.935071E-6
-5.405000	3.605266E-6
-5.399000	3.626337E-6
-5.393000	3.782799E-6
-5.387000	3.909692E-6
-5.381000	3.909692E-6
-5.375000	4.480593E-6
-5.369000	4.383270E-6
-5.363000	4.442525E-6
-5.357000	4.455214E-6
-5.351000	4.577800E-6
-5.345000	4.924601E-6
-5.339000	4.852773E-6
-5.333000	4.776637E-6
-5.327000	4.586298E-6
-5.321000	4.734378E-6
-5.315000	4.873844E-6
-5.309000	5.021924E-6
-5.303000	4.751259E-6
-5.297000	5.068374E-6
-5.291000	5.203765E-6
-5.285000	5.575828E-6
-5.279000	5.660462E-6
-5.273000	5.842303E-6
-5.267000	5.825306E-6
-5.261000	5.863374E-6
-5.254500	5.800044E-6
-5.248500	5.986076E-6
-5.242500	6.214366E-6
-5.236500	6.041024E-6
-5.230500	6.231363E-6
-5.224500	6.197486E-6
-5.218500	6.556977E-6
-5.212500	6.662682E-6
-5.206500	6.764196E-6
-5.200500	6.836024E-6
-5.194500	6.954418E-6
-5.188500	7.161638E-6
-5.182500	7.271650E-6
-5.176500	7.326598E-6
-5.170500	7.559196E-6
-5.164500	7.956754E-6
-5.158500	7.774914E-6
-5.152500	8.032774E-6
-5.146500	7.804483E-6
-5.140500	8.028583E-6
-5.134500	8.100527E-6
-5.128500	8.341507E-6
-5.122500	8.278061E-6
-5.116500	8.510659E-6
-5.110500	8.612173E-6
-5.104500	8.772826E-6
-5.098500	9.229640E-6
-5.092500	9.284588E-6
-5.086500	9.424170E-6
-5.080500	9.559444E-6
-5.074500	9.935815E-6
-5.068500	9.855488E-6
-5.062500	1.022755E-5
-5.056500	9.935815E-6
-5.050500	1.013884E-5
-5.044500	1.045596E-5
-5.038500	1.059123E-5
-5.032500	1.083652E-5
-5.026500	1.096341E-5
-5.020500	1.099298E-5
-5.014500	1.125515E-5
-5.008500	1.155119E-5
-5.002500	1.176691E-5
-4.996500	1.188111E-5
-4.990500	1.208403E-5
-4.984500	1.266343E-5
-4.978500	1.271837E-5
-4.972500	1.281989E-5
-4.966500	1.275225E-5
-4.960500	1.286634E-5
-4.954500	1.327659E-5
-4.948500	1.342886E-5
-4.942500	1.363608E-5
-4.936500	1.361489E-5
-4.930500	1.382211E-5
-4.924500	1.413503E-5
-4.918500	1.460873E-5
-4.912500	1.476519E-5
-4.906500	1.507381E-5
-4.900500	1.516263E-5
-4.894500	1.550093E-5
-4.888500	1.536985E-5
-4.882500	1.583924E-5
-4.876500	1.606764E-5
-4.870500	1.613109E-5
-4.864500	1.646520E-5
-4.858500	1.679081E-5
-4.852500	1.694728E-5
-4.846500	1.739128E-5
-4.840500	1.762388E-5
-4.834500	1.779723E-5
-4.828500	1.791143E-5
-4.822500	1.849502E-5
-4.816500	1.878256E-5
-4.810500	1.882901E-5
-4.804500	1.903204E-5
-4.798500	1.940841E-5
-4.792500	1.969596E-5
-4.786500	1.978059E-5
-4.780500	2.015696E-5
-4.774500	2.033450E-5
-4.768500	2.064742E-5
-4.762500	2.098584E-5
-4.756500	2.120144E-5
-4.750500	2.154824E-5
-4.744500	2.193300E-5
-4.738500	2.214871E-5
-4.732500	2.270273E-5
-4.726500	2.305373E-5
-4.720500	2.329051E-5
-4.714500	2.372602E-5
-4.708500	2.414477E-5
-4.702500	2.447458E-5
-4.696500	2.480869E-5
-4.690500	2.513011E-5
-4.684500	2.540066E-5
-4.678500	2.559100E-5
-4.672500	2.610695E-5
-4.666500	2.635224E-5
-4.660500	2.683431E-5
-4.654500	2.719369E-5
-4.648500	2.750661E-5
-4.642500	2.787879E-5
-4.636500	2.850045E-5
-4.630000	2.896984E-5
-4.624000	2.902909E-5
-4.618000	2.948998E-5
-4.612000	2.993830E-5
-4.606000	3.048801E-5
-4.600000	3.090664E-5
-4.594000	3.111805E-5
-4.588000	3.152830E-5
-4.582000	3.211608E-5
-4.576000	3.251364E-5
-4.570000	3.294076E-5
-4.564000	3.335520E-5
-4.558000	3.388373E-5
-4.552000	3.424322E-5
-4.546000	3.474648E-5
-4.540000	3.521587E-5
-4.534000	3.564719E-5
-4.528000	3.620121E-5
-4.522000	3.659865E-5
-4.516000	3.728375E-5
-4.510000	3.757980E-5
-4.504000	3.820565E-5
-4.498000	3.854395E-5
-4.492000	3.903871E-5
-4.486000	3.954617E-5
-4.480000	3.999448E-5
-4.474000	4.073023E-5
-4.468000	4.111510E-5
-4.462000	4.147028E-5
-4.456000	4.240917E-5
-4.450000	4.308578E-5
-4.444000	4.341558E-5
-4.438000	4.397379E-5
-4.432000	4.436704E-5
-4.426000	4.524668E-5
-4.420000	4.553853E-5
-4.414000	4.617707E-5
-4.408000	4.677335E-5
-4.402000	4.739489E-5
-4.396000	4.803354E-5
-4.390000	4.867208E-5
-4.384000	4.926405E-5
-4.378000	4.978420E-5
-4.372000	5.047349E-5
-4.366000	5.125161E-5
-4.360000	5.186058E-5
-4.354000	5.255837E-5
-4.348000	5.316734E-5
-4.342000	5.385664E-5
-4.336000	5.446561E-5
-4.330000	5.520135E-5
-4.324000	5.577225E-5
-4.318000	5.655468E-5
-4.312000	5.718472E-5
-4.306000	5.793327E-5
-4.300000	5.864794E-5
-4.294000	5.932874E-5
-4.288000	6.027182E-5
-4.282000	6.095681E-5
-4.276000	6.181106E-5
-4.270000	6.242003E-5
-4.264000	6.326160E-5
-4.258000	6.397197E-5
-4.252000	6.483891E-5
-4.246000	6.569736E-5
-4.240000	6.620481E-5
-4.234000	6.716477E-5
-4.228000	6.812054E-5
-4.222000	6.885210E-5
-4.216000	6.969785E-5
-4.210000	7.051823E-5
-4.204000	7.130485E-5
-4.198000	7.221405E-5
-4.192000	7.310207E-5
-4.186000	7.387181E-5
-4.180000	7.486972E-5
-4.174000	7.582968E-5
-4.168000	7.670082E-5
-4.162000	7.756776E-5
-4.156000	7.856998E-5
-4.150000	7.935229E-5
-4.144000	8.041796E-5
-4.138000	8.133985E-5
-4.132000	8.229143E-5
-4.126000	8.320063E-5
-4.120000	8.424930E-5
-4.114000	8.517969E-5
-4.108000	8.622848E-5
-4.102000	8.710800E-5
-4.096000	8.801720E-5
-4.090000	8.924783E-5
-4.084000	9.037275E-5
-4.078000	9.140454E-5
-4.072000	9.245751E-5
-4.066000	9.356975E-5
-4.060000	9.462691E-5
-4.054000	9.592099E-5
-4.048000	9.699515E-5
-4.042000	9.798887E-5
-4.036000	9.916455E-5
-4.030000	0.000100
-4.024000	0.000101
-4.018000	0.000102
-4.012000	0.000104
-4.005500	0.000105
-3.999500	0.000106
-3.993500	0.000107
-3.987500	0.000109
-3.981500	0.000110
-3.975500	0.000111
-3.969500	0.000112
-3.963500	0.000114
-3.957500	0.000115
-3.951500	0.000116
-3.945500	0.000117
-3.939500	0.000119
-3.933500	0.000120
-3.927500	0.000121
-3.921500	0.000123
-3.915500	0.000124
-3.909500	0.000125
-3.903500	0.000127
-3.897500	0.000128
-3.891500	0.000130
-3.885500	0.000131
-3.879500	0.000132
-3.873500	0.000134
-3.867500	0.000135
-3.861500	0.000137
-3.855500	0.000138
-3.849500	0.000140
-3.843500	0.000141
-3.837500	0.000143
-3.831500	0.000144
-3.825500	0.000146
-3.819500	0.000147
-3.813500	0.000149
-3.807500	0.000150
-3.801500	0.000152
-3.795500	0.000153
-3.789500	0.000155
-3.783500	0.000157
-3.777500	0.000159
-3.771500	0.000160
-3.765500	0.000162
-3.759500	0.000163
-3.753500	0.000165
-3.747500	0.000167
-3.741500	0.000168
-3.735500	0.000170
-3.729500	0.000171
-3.723500	0.000173
-3.717500	0.000175
-3.711500	0.000177
-3.705500	0.000179
-3.699500	0.000180
-3.693500	0.000182
-3.687500	0.000184
-3.681500	0.000186
-3.675500	0.000187
-3.669500	0.000189
-3.663500	0.000191
-3.657500	0.000193
-3.651500	0.000194
-3.645500	0.000196
-3.639500	0.000198
-3.633500	0.000200
-3.627500	0.000201
-3.621500	0.000203
-3.615500	0.000205
-3.609500	0.000207
-3.603500	0.000209
-3.597500	0.000210
-3.591500	0.000212
-3.585500	0.000214
-3.579500	0.000216
-3.573500	0.000217
-3.567500	0.000219
-3.561500	0.000221
-3.555500	0.000222
-3.549500	0.000224
-3.543500	0.000226
-3.537500	0.000228
-3.531500	0.000229
-3.525500	0.000231
-3.519500	0.000233
-3.513500	0.000234
-3.507500	0.000236
-3.501500	0.000238
-3.495500	0.000239
-3.489500	0.000241
-3.483500	0.000242
-3.477500	0.000244
-3.471500	0.000246
-3.465500	0.000247
-3.459500	0.000248
-3.453500	0.000250
-3.447500	0.000251
-3.441500	0.000253
-3.435500	0.000254
-3.429500	0.000255
-3.423500	0.000257
-3.417500	0.000258
-3.411500	0.000260
-3.405500	0.000261
-3.399500	0.000262
-3.393500	0.000263
-3.387500	0.000264
-3.381000	0.000266
-3.375000	0.000267
-3.369000	0.000268
-3.363000	0.000269
-3.357000	0.000270
-3.351000	0.000271
-3.345000	0.000272
-3.339000	0.000273
-3.333000	0.000274
-3.327000	0.000275
-3.321000	0.000276
-3.315000	0.000277
-3.309000	0.000277
-3.303000	0.000278
-3.297000	0.000279
-3.291000	0.000280
-3.285000	0.000281
-3.279000	0.000281
-3.273000	0.000282
-3.267000	0.000283
-3.261000	0.000283
-3.255000	0.000284
-3.249000	0.000285
-3.243000	0.000285
-3.237000	0.000286
-3.231000	0.000287
-3.225000	0.000287
-3.219000	0.000288
-3.213000	0.000289
-3.207000	0.000289
-3.201000	0.000290
-3.195000	0.000290
-3.189000	0.000291
-3.183000	0.000291
-3.177000	0.000292
-3.171000	0.000292
-3.165000	0.000293
-3.159000	0.000294
-3.153000	0.000294
-3.147000	0.000295
-3.141000	0.000295
-3.135000	0.000296
-3.129000	0.000297
-3.123000	0.000297
-3.117000	0.000297
-3.111000	0.000298
-3.105000	0.000298
-3.099000	0.000299
-3.093000	0.000299
-3.087000	0.000300
-3.081000	0.000300
-3.075000	0.000300
-3.069000	0.000301
-3.063000	0.000302
-3.057000	0.000302
-3.051000	0.000303
-3.045000	0.000303
-3.039000	0.000304
-3.033000	0.000304
-3.027000	0.000305
-3.021000	0.000305
-3.015000	0.000305
-3.009000	0.000306
-3.003000	0.000306
-2.997000	0.000306
-2.991000	0.000307
-2.985000	0.000308
-2.979000	0.000308
-2.973000	0.000309
-2.967000	0.000309
-2.961000	0.000309
-2.955000	0.000310
-2.949000	0.000311
-2.943000	0.000311
-2.937000	0.000311
-2.931000	0.000311
-2.925000	0.000312
-2.919000	0.000312
-2.913000	0.000313
-2.907000	0.000313
-2.901000	0.000313
-2.895000	0.000314
-2.889000	0.000314
-2.883000	0.000315
-2.877000	0.000315
-2.871000	0.000316
-2.865000	0.000316
-2.859000	0.000316
-2.853000	0.000317
-2.847000	0.000317
-2.841000	0.000318
-2.835000	0.000318
-2.829000	0.000318
-2.823000	0.000319
-2.817000	0.000319
-2.811000	0.000319
-2.805000	0.000320
-2.799000	0.000320
-2.793000	0.000321
-2.787000	0.000321
-2.781000	0.000321
-2.775000	0.000322
-2.769000	0.000322
-2.763000	0.000322
-2.756500	0.000323
-2.750500	0.000323
-2.744500	0.000323
-2.738500	0.000324
-2.732500	0.000324
-2.726500	0.000325
-2.720500	0.000325
-2.714500	0.000325
-2.708500	0.000326
-2.702500	0.000326
-2.696500	0.000326
-2.690500	0.000327
-2.684500	0.000327
-2.678500	0.000327
-2.672500	0.000328
-2.666500	0.000328
-2.660500	0.000328
-2.654500	0.000329
-2.648500	0.000329
-2.642500	0.000329
-2.636500	0.000330
-2.630500	0.000330
-2.624500	0.000330
-2.618500	0.000330
-2.612500	0.000331
-2.606500	0.000331
-2.600500	0.000332
-2.594500	0.000332
-2.588500	0.000332
-2.582500	0.000333
-2.576500	0.000333
-2.570500	0.000333
-2.564500	0.000334
-2.558500	0.000334
-2.552500	0.000334
-2.546500	0.000334
-2.540500	0.000335
-2.534500	0.000335
-2.528500	0.000335
-2.522500	0.000335
-2.516500	0.000336
-2.510500	0.000336
-2.504500	0.000337
-2.498500	0.000337
-2.492500	0.000337
-2.486500	0.000338
-2.480500	0.000338
-2.474500	0.000338
-2.468500	0.000338
-2.462500	0.000338
-2.456500	0.000339
-2.450500	0.000339
-2.444500	0.000339
-2.438500	0.000340
-2.432500	0.000340
-2.426500	0.000340
-2.420500	0.000340
-2.414500	0.000341
-2.408500	0.000341
-2.402500	0.000341
-2.396500	0.000342
-2.390500	0.000342
-2.384500	0.000342
-2.378500	0.000342
-2.372500	0.000343
-2.366500	0.000343
-2.360500	0.000343
-2.354500	0.000343
-2.348500	0.000344
-2.342500	0.000344
-2.336500	0.000344
-2.330500	0.000344
-2.324500	0.000345
-2.318500	0.000345
-2.312500	0.000345
-2.306500	0.000345
-2.300500	0.000346
-2.294500	0.000346
-2.288500	0.000346
-2.282500	0.000346
-2.276500	0.000347
-2.270500	0.000347
-2.264500	0.000347
-2.258500	0.000347
-2.252500	0.000347
-2.246500	0.000348
-2.240500	0.000348
-2.234500	0.000348
-2.228500	0.000349
-2.222500	0.000349
-2.216500	0.000349
-2.210500	0.000349
-2.204500	0.000350
-2.198500	0.000350
-2.192500	0.000350
-2.186500	0.000350
-2.180500	0.000350
-2.174500	0.000351
-2.168500	0.000351
-2.162500	0.000351
-2.156500	0.000351
-2.150500	0.000352
-2.144500	0.000352
-2.138500	0.000352
-2.132000	0.000352
-2.126000	0.000353
-2.120000	0.000353
-2.114000	0.000353
-2.108000	0.000353
-2.102000	0.000353
-2.096000	0.000354
-2.090000	0.000354
-2.084000	0.000354
-2.078000	0.000354
-2.072000	0.000354
-2.066000	0.000355
-2.060000	0.000355
-2.054000	0.000355
-2.048000	0.000355
-2.042000	0.000356
-2.036000	0.000356
-2.030000	0.000356
-2.024000	0.000356
-2.018000	0.000356
-2.012000	0.000357
-2.006000	0.000357
-2.000000	0.000357
-1.994000	0.000357
-1.988000	0.000357
-1.982000	0.000357
-1.976000	0.000357
-1.970000	0.000358
-1.964000	0.000358
-1.958000	0.000359
-1.952000	0.000359
-1.946000	0.000359
-1.940000	0.000359
-1.934000	0.000359
-1.928000	0.000360
-1.922000	0.000360
-1.916000	0.000360
-1.910000	0.000360
-1.904000	0.000360
-1.898000	0.000360
-1.892000	0.000361
-1.886000	0.000360
-1.880000	0.000361
-1.874000	0.000361
-1.868000	0.000361
-1.862000	0.000362
-1.856000	0.000362
-1.850000	0.000362
-1.844000	0.000362
-1.838000	0.000362
-1.832000	0.000362
-1.826000	0.000362
-1.820000	0.000363
-1.814000	0.000363
-1.808000	0.000363
-1.802000	0.000363
-1.796000	0.000363
-1.790000	0.000364
-1.784000	0.000364
-1.778000	0.000364
-1.772000	0.000364
-1.766000	0.000364
-1.760000	0.000365
-1.754000	0.000365
-1.748000	0.000365
-1.742000	0.000365
-1.736000	0.000365
-1.730000	0.000365
-1.724000	0.000365
-1.718000	0.000366
-1.712000	0.000366
-1.706000	0.000366
-1.700000	0.000366
-1.694000	0.000366
-1.688000	0.000367
-1.682000	0.000367
-1.676000	0.000367
-1.670000	0.000367
-1.664000	0.000367
-1.658000	0.000368
-1.652000	0.000368
-1.646000	0.000368
-1.640000	0.000368
-1.634000	0.000368
-1.628000	0.000368
-1.622000	0.000368
-1.616000	0.000368
-1.610000	0.000368
-1.604000	0.000369
-1.598000	0.000369
-1.592000	0.000369
-1.586000	0.000369
-1.580000	0.000369
-1.574000	0.000370
-1.568000	0.000370
-1.562000	0.000370
-1.556000	0.000370
-1.550000	0.000370
-1.544000	0.000370
-1.538000	0.000371
-1.532000	0.000371
-1.526000	0.000371
-1.520000	0.000371
-1.514000	0.000371
-1.507500	0.000371
-1.501500	0.000372
-1.495500	0.000372
-1.489500	0.000372
-1.483500	0.000372
-1.477500	0.000372
-1.471500	0.000372
-1.465500	0.000372
-1.459500	0.000373
-1.453500	0.000373
-1.447500	0.000373
-1.441500	0.000373
-1.435500	0.000373
-1.429500	0.000373
-1.423500	0.000373
-1.417500	0.000374
-1.411500	0.000374
-1.405500	0.000374
-1.399500	0.000374
-1.393500	0.000374
-1.387500	0.000375
-1.381500	0.000375
-1.375500	0.000375
-1.369500	0.000375
-1.363500	0.000375
-1.357500	0.000375
-1.351500	0.000375
-1.345500	0.000375
-1.339500	0.000375
-1.333500	0.000375
-1.327500	0.000375
-1.321500	0.000376
-1.315500	0.000376
-1.309500	0.000376
-1.303500	0.000376
-1.297500	0.000376
-1.291500	0.000377
-1.285500	0.000377
-1.279500	0.000377
-1.273500	0.000377
-1.267500	0.000377
-1.261500	0.000377
-1.255500	0.000377
-1.249500	0.000377
-1.243500	0.000377
-1.237500	0.000378
-1.231500	0.000378
-1.225500	0.000378
-1.219500	0.000378
-1.213500	0.000378
-1.207500	0.000378
-1.201500	0.000378
-1.195500	0.000379
-1.189500	0.000379
-1.183500	0.000379
-1.177500	0.000379
-1.171500	0.000379
-1.165500	0.000379
-1.159500	0.000379
-1.153500	0.000380
-1.147500	0.000380
-1.141500	0.000380
-1.135500	0.000380
-1.129500	0.000380
-1.123500	0.000380
-1.117500	0.000380
-1.111500	0.000380
-1.105500	0.000381
-1.099500	0.000381
-1.093500	0.000381
-1.087500	0.000381
-1.081500	0.000381
-1.075500	0.000381
-1.069500	0.000381
-1.063500	0.000381
-1.057500	0.000381
-1.051500	0.000382
-1.045500	0.000382
-1.039500	0.000382
-1.033500	0.000382
-1.027500	0.000382
-1.021500	0.000382
-1.015500	0.000383
-1.009500	0.000383
-1.003500	0.000383
-0.997500	0.000383
-0.991500	0.000383
-0.985500	0.000383
-0.979500	0.000383
-0.973500	0.000383
-0.967500	0.000383
-0.961500	0.000383
-0.955500	0.000384
-0.949500	0.000384
-0.943500	0.000384
-0.937500	0.000384
-0.931500	0.000384
-0.925500	0.000384
-0.919500	0.000384
-0.913500	0.000384
-0.907500	0.000384
-0.901500	0.000385
-0.895500	0.000385
-0.889500	0.000385
-0.883000	0.000385
-0.877000	0.000385
-0.871000	0.000385
-0.865000	0.000385
-0.859000	0.000386
-0.853000	0.000386
-0.847000	0.000386
-0.841000	0.000386
-0.835000	0.000386
-0.829000	0.000386
-0.823000	0.000386
-0.817000	0.000386
-0.811000	0.000386
-0.805000	0.000386
-0.799000	0.000387
-0.793000	0.000387
-0.787000	0.000387
-0.781000	0.000387
-0.775000	0.000387
-0.769000	0.000387
-0.763000	0.000387
-0.757000	0.000387
-0.751000	0.000387
-0.745000	0.000388
-0.739000	0.000388
-0.733000	0.000388
-0.727000	0.000388
-0.721000	0.000388
-0.715000	0.000388
-0.709000	0.000388
-0.703000	0.000388
-0.697000	0.000388
-0.691000	0.000388
-0.685000	0.000389
-0.679000	0.000389
-0.673000	0.000389
-0.667000	0.000389
-0.661000	0.000389
-0.655000	0.000389
-0.649000	0.000390
-0.643000	0.000390
-0.637000	0.000389
-0.631000	0.000389
-0.625000	0.000390
-0.619000	0.000390
-0.613000	0.000390
-0.607000	0.000390
-0.601000	0.000390
-0.595000	0.000390
-0.589000	0.000390
-0.583000	0.000390
-0.577000	0.000391
-0.571000	0.000391
-0.565000	0.000391
-0.559000	0.000391
-0.553000	0.000391
-0.547000	0.000391
-0.541000	0.000391
-0.535000	0.000391
-0.529000	0.000391
-0.523000	0.000391
-0.517000	0.000391
-0.511000	0.000392
-0.505000	0.000392
-0.499000	0.000392
-0.493000	0.000392
-0.487000	0.000392
-0.481000	0.000392
-0.475000	0.000392
-0.469000	0.000392
-0.463000	0.000392
-0.457000	0.000392
-0.451000	0.000392
-0.445000	0.000392
-0.439000	0.000393
-0.433000	0.000393
-0.427000	0.000393
-0.421000	0.000393
-0.415000	0.000393
-0.409000	0.000393
-0.403000	0.000393
-0.397000	0.000393
-0.391000	0.000393
-0.385000	0.000394
-0.379000	0.000394
-0.373000	0.000394
-0.367000	0.000394
-0.361000	0.000394
-0.355000	0.000394
-0.349000	0.000394
-0.343000	0.000394
-0.337000	0.000394
-0.331000	0.000394
-0.325000	0.000394
-0.319000	0.000394
-0.313000	0.000395
-0.307000	0.000395
-0.301000	0.000395
-0.295000	0.000395
-0.289000	0.000395
-0.283000	0.000395
-0.277000	0.000395
-0.271000	0.000395
-0.265000	0.000395
-0.258500	0.000395
-0.252500	0.000395
-0.246500	0.000395
-0.240500	0.000396
-0.234500	0.000396
-0.228500	0.000396
-0.222500	0.000396
-0.216500	0.000396
-0.210500	0.000396
-0.204500	0.000396
-0.198500	0.000396
-0.192500	0.000396
-0.186500	0.000396
-0.180500	0.000396
-0.174500	0.000396
-0.168500	0.000396
-0.162500	0.000397
-0.156500	0.000397
-0.150500	0.000397
-0.144500	0.000397
-0.138500	0.000397
-0.132500	0.000397
-0.126500	0.000397
-0.120500	0.000397
-0.114500	0.000397
-0.108500	0.000397
-0.102500	0.000398
-0.096500	0.000398
-0.090500	0.000398
-0.084500	0.000398
-0.078500	0.000398
-0.072500	0.000398
-0.066500	0.000398
-0.060500	0.000398
-0.054500	0.000398
-0.048500	0.000398
-0.042500	0.000398
-0.036500	0.000398
-0.030500	0.000399
-0.024500	0.000398
-0.018500	0.000399
-0.012500	0.000399
-0.006500	0.000399
-0.000500	0.000399
