% Langmuir characteristic curve

% U (Volt)	I (A)
-15.000000	-8.230563E-8
-14.994000	-2.050074E-7
-14.988000	-4.671747E-7
-14.982000	-5.222391E-7
-14.976000	-3.192108E-7
-14.970000	-5.391194E-7
-14.964000	-2.811430E-7
-14.958000	-6.660121E-7
-14.952000	-5.813781E-7
-14.946000	-2.260786E-7
-14.940000	-1.711305E-7
-14.934000	-1.711305E-7
-14.928000	-2.514571E-7
-14.922000	-2.853340E-7
-14.916000	-2.599554E-7
-14.910000	-2.811430E-7
-14.904000	-2.557645E-7
-14.898000	-3.192108E-7
-14.892000	-5.010515E-7
-14.886000	-3.741588E-7
-14.880000	-3.445894E-7
-14.874000	-3.319001E-7
-14.868000	-4.629837E-7
-14.862000	-5.010515E-7
-14.856000	-4.334142E-7
-14.850000	-3.154855E-8
-14.844000	-1.584413E-7
-14.838000	-1.711305E-7
-14.832000	-2.091983E-7
-14.826000	6.519258E-9
-14.820000	-1.246808E-7
-14.814000	-8.230563E-8
-14.808000	-4.883623E-7
-14.802000	-5.433103E-7
-14.796000	-4.164176E-7
-14.790000	-4.080357E-7
-14.784000	-3.275927E-7
-14.778000	-4.037283E-7
-14.772000	-3.572786E-7
-14.766000	-1.965091E-7
-14.760000	-1.754379E-7
-14.754000	-1.034932E-7
-14.748000	-2.641464E-7
-14.742000	-2.853340E-7
-14.736000	-2.641464E-7
-14.730000	-2.050074E-7
-14.724000	-4.854519E-8
-14.718000	-3.614696E-7
-14.712000	-3.995374E-7
-14.706000	-3.149034E-7
-14.700000	-3.275927E-7
-14.694000	-2.599554E-7
-14.688000	-4.502945E-7
-14.682000	-4.714821E-7
-14.676000	-4.249159E-7
-14.670000	-1.034932E-7
-14.664000	-9.499490E-8
-14.658000	-9.080395E-8
-14.652000	-3.529713E-7
-14.645500	-2.260786E-7
-14.639500	-1.754379E-7
-14.633500	-1.965091E-7
-14.627500	-4.080357E-7
-14.621500	-5.179318E-7
-14.615500	-2.641464E-7
-14.609500	-2.557645E-7
-14.603500	-3.065215E-7
-14.597500	-3.234018E-7
-14.591500	-1.965091E-7
-14.585500	-2.007000E-7
-14.579500	-1.415610E-7
-14.573500	-1.373701E-7
-14.567500	-2.260786E-7
-14.561500	-4.207250E-7
-14.555500	-2.050074E-7
-14.549500	-2.430752E-7
-14.543500	-2.303859E-7
-14.537500	-3.319001E-7
-14.531500	-4.080357E-7
-14.525500	-4.334142E-7
-14.519500	-3.192108E-7
-14.513500	-3.910391E-7
-14.507500	-5.476177E-7
-14.501500	-4.037283E-7
-14.495500	-3.741588E-7
-14.489500	-1.076842E-7
-14.483500	-9.499490E-8
-14.477500	-1.796288E-7
-14.471500	-2.599554E-7
-14.465500	-2.218876E-7
-14.459500	-3.572786E-7
-14.453500	-2.684537E-7
-14.447500	-3.107125E-7
-14.441500	-4.841713E-7
-14.435500	-3.868481E-7
-14.429500	-3.402820E-7
-14.423500	-2.853340E-7
-14.417500	-1.796288E-7
-14.411500	-2.091983E-7
-14.405500	-2.303859E-7
-14.399500	-3.107125E-7
-14.393500	-1.415610E-7
-14.387500	-1.965091E-7
-14.381500	-2.853340E-7
-14.375500	-2.641464E-7
-14.369500	-2.050074E-7
-14.363500	-3.487803E-7
-14.357500	-2.260786E-7
-14.351500	-3.656605E-7
-14.345500	-5.222391E-7
-14.339500	-4.587928E-7
-14.333500	-2.726447E-7
-14.327500	-2.853340E-7
-14.321500	-5.898764E-7
-14.315500	-4.249159E-7
-14.309500	-1.076842E-7
-14.303500	-8.230563E-8
-14.297500	-2.176967E-7
-14.291500	-2.133893E-7
-14.285500	-2.726447E-7
-14.279500	-2.430752E-7
-14.273500	-1.754379E-7
-14.267500	-1.838198E-7
-14.261500	-2.726447E-7
-14.255500	-3.529713E-7
-14.249500	-3.065215E-7
-14.243500	-2.726447E-7
-14.237500	-2.853340E-7
-14.231500	-2.895249E-7
-14.225500	-2.684537E-7
-14.219500	-2.218876E-7
-14.213500	-1.246808E-7
-14.207500	-2.726447E-7
-14.201500	-1.965091E-7
-14.195500	-1.330627E-7
-14.189500	6.519258E-9
-14.183500	-1.288718E-7
-14.177500	-9.930227E-8
-14.171500	-4.417961E-7
-14.165500	-3.487803E-7
-14.159500	-3.192108E-7
-14.153500	-3.910391E-7
-14.147500	-3.107125E-7
-14.141500	-4.756730E-7
-14.135500	-5.052425E-7
-14.129500	-4.004687E-8
-14.123500	-1.246808E-7
-14.117500	6.519258E-9
-14.111500	-2.345769E-7
-14.105500	-2.811430E-7
-14.099500	-1.627486E-7
-14.093500	-1.923181E-7
-14.087500	-1.076842E-7
-14.081500	-3.065215E-7
-14.075500	-3.826572E-7
-14.069500	-3.741588E-7
-14.063500	-2.430752E-7
-14.057500	-3.995374E-7
-14.051500	-2.980232E-7
-14.045500	-3.826572E-7
-14.039500	-3.445894E-7
-14.033500	-4.854519E-8
-14.027500	-1.457520E-7
-14.021500	-6.542541E-8
-14.015500	-2.514571E-7
-14.009500	-2.050074E-7
-14.003500	-3.585592E-8
-13.997500	-4.854519E-8
-13.991500	-3.402820E-7
-13.985500	-4.629837E-7
-13.979500	-3.741588E-7
-13.973500	-2.768356E-7
-13.967500	-2.557645E-7
-13.961500	-2.430752E-7
-13.955500	-2.472661E-7
-13.949000	-5.264301E-7
-13.943000	-1.923181E-7
-13.937000	-2.641464E-7
-13.931000	-1.669396E-7
-13.925000	-2.726447E-7
-13.919000	-1.161825E-7
-13.913000	-1.754379E-7
-13.907000	-1.119915E-7
-13.901000	-3.656605E-7
-13.895000	-4.037283E-7
-13.889000	-4.249159E-7
-13.883000	-2.599554E-7
-13.877000	-3.614696E-7
-13.871000	-4.417961E-7
-13.865000	-4.291069E-7
-13.859000	-3.953464E-7
-13.853000	-4.854519E-8
-13.847000	-1.500593E-7
-13.841000	-2.218876E-7
-13.835000	-3.149034E-7
-13.829000	-2.303859E-7
-13.823000	-2.811430E-7
-13.817000	-1.288718E-7
-13.811000	-2.938323E-7
-13.805000	-2.811430E-7
-13.799000	-4.249159E-7
-13.793000	-2.811430E-7
-13.787000	-2.684537E-7
-13.781000	-1.965091E-7
-13.775000	-2.811430E-7
-13.769000	-4.080357E-7
-13.763000	-1.627486E-7
-13.757000	-3.585592E-8
-13.751000	-1.880107E-7
-13.745000	-2.811430E-7
-13.739000	-3.107125E-7
-13.733000	-2.316665E-8
-13.727000	-1.880107E-7
-13.721000	-4.207250E-7
-13.715000	-4.207250E-7
-13.709000	-2.684537E-7
-13.703000	-4.164176E-7
-13.697000	-2.980232E-7
-13.691000	-3.487803E-7
-13.685000	-4.249159E-7
-13.679000	-3.487803E-7
-13.673000	-1.415610E-7
-13.667000	-1.246808E-7
-13.661000	-1.457520E-7
-13.655000	-2.557645E-7
-13.649000	-2.303859E-7
-13.643000	-1.542503E-7
-13.637000	-1.161825E-7
-13.631000	-3.826572E-7
-13.625000	-4.249159E-7
-13.619000	-2.811430E-7
-13.613000	-3.022142E-7
-13.607000	-3.065215E-7
-13.601000	-3.402820E-7
-13.595000	-2.050074E-7
-13.589000	-2.599554E-7
-13.583000	-6.123446E-8
-13.577000	-2.387678E-7
-13.571000	-1.330627E-7
-13.565000	-2.007000E-7
-13.559000	-2.811430E-7
-13.553000	-6.170012E-9
-13.547000	-2.599554E-7
-13.541000	-4.004687E-8
-13.535000	-4.756730E-7
-13.529000	-4.417961E-7
-13.523000	-3.656605E-7
-13.517000	-3.783498E-7
-13.511000	-3.995374E-7
-13.505000	-5.771872E-7
-13.499000	-5.686888E-7
-13.493000	-2.557645E-7
-13.487000	-2.735760E-8
-13.481000	-1.076842E-7
-13.475000	-2.091983E-7
-13.469000	-2.387678E-7
-13.463000	-3.319001E-7
-13.457000	-1.754379E-7
-13.451000	-1.246808E-7
-13.445000	-3.487803E-7
-13.439000	-5.052425E-7
-13.433000	-3.826572E-7
-13.427000	-3.275927E-7
-13.421000	-2.726447E-7
-13.415000	-2.726447E-7
-13.409000	-3.360910E-7
-13.403000	-5.349284E-7
-13.397000	-1.457520E-7
-13.391000	-1.965091E-7
-13.385000	-4.164176E-7
-13.379000	-2.641464E-7
-13.373000	-1.457520E-7
-13.367000	-1.627486E-7
-13.361000	-1.885928E-8
-13.355000	-4.968606E-7
-13.349000	-4.164176E-7
-13.343000	-2.345769E-7
-13.337000	-3.234018E-7
-13.331000	-2.726447E-7
-13.325000	-5.010515E-7
-13.319000	-5.729962E-7
-13.313000	-1.880107E-7
-13.307000	-1.034932E-7
-13.301000	-1.584413E-7
-13.295000	-9.080395E-8
-13.289000	-2.303859E-7
-13.283000	-3.656605E-7
-13.277000	-1.584413E-7
-13.271000	-2.007000E-7
-13.265000	-3.699679E-7
-13.258500	-3.699679E-7
-13.252500	-2.684537E-7
-13.246500	-2.768356E-7
-13.240500	-3.234018E-7
-13.234500	-3.741588E-7
-13.228500	-2.387678E-7
-13.222500	-4.334142E-7
-13.216500	-9.499490E-8
-13.210500	-1.203734E-7
-13.204500	-2.218876E-7
-13.198500	-2.176967E-7
-13.192500	-1.330627E-7
-13.186500	-1.838198E-7
-13.180500	-1.754379E-7
-13.174500	-4.249159E-7
-13.168500	-4.714821E-7
-13.162500	-4.164176E-7
-13.156500	-3.319001E-7
-13.150500	-3.995374E-7
-13.144500	-4.841713E-7
-13.138500	-4.756730E-7
-13.132500	-4.925532E-7
-13.126500	-1.880107E-7
-13.120500	-1.466833E-8
-13.114500	-1.796288E-7
-13.108500	-2.514571E-7
-13.102500	-2.387678E-7
-13.096500	-3.319001E-7
-13.090500	-1.965091E-7
-13.084500	-2.345769E-7
-13.078500	-5.813781E-7
-13.072500	-4.502945E-7
-13.066500	-2.684537E-7
-13.060500	-2.768356E-7
-13.054500	-1.965091E-7
-13.048500	-2.472661E-7
-13.042500	-3.487803E-7
-13.036500	-3.107125E-7
-13.030500	-1.457520E-7
-13.024500	-1.965091E-7
-13.018500	-1.669396E-7
-13.012500	-1.246808E-7
-13.006500	1.164153E-7
-13.000500	-1.885928E-8
-12.994500	-2.050074E-7
-12.988500	-4.629837E-7
-12.982500	-4.207250E-7
-12.976500	-3.614696E-7
-12.970500	-2.726447E-7
-12.964500	-3.868481E-7
-12.958500	-3.953464E-7
-12.952500	-4.925532E-7
-12.946500	-3.192108E-7
-12.940500	-1.965091E-7
-12.934500	-1.203734E-7
-12.928500	-3.445894E-7
-12.922500	-2.133893E-7
-12.916500	-3.826572E-7
-12.910500	-2.853340E-7
-12.904500	-2.430752E-7
-12.898500	-3.910391E-7
-12.892500	-3.995374E-7
-12.886500	-3.065215E-7
-12.880500	-1.669396E-7
-12.874500	-3.953464E-7
-12.868500	-2.938323E-7
-12.862500	-3.826572E-7
-12.856500	-2.303859E-7
-12.850500	-1.542503E-7
-12.844500	-2.303859E-7
-12.838500	-2.007000E-7
-12.832500	-1.034932E-7
-12.826500	-2.735760E-8
-12.820500	-6.542541E-8
-12.814500	-1.288718E-7
-12.808500	-4.925532E-7
-12.802500	-4.207250E-7
-12.796500	-4.291069E-7
-12.790500	-3.656605E-7
-12.784500	-1.711305E-7
-12.778500	-3.107125E-7
-12.772500	-3.741588E-7
-12.766500	-6.961636E-8
-12.760500	-9.930227E-8
-12.754500	-2.303859E-7
-12.748500	-2.684537E-7
-12.742500	-2.303859E-7
-12.736500	-2.303859E-7
-12.730500	-2.430752E-7
-12.724500	-7.392373E-8
-12.718500	-3.995374E-7
-12.712500	-5.898764E-7
-12.706500	-3.572786E-7
-12.700500	-2.387678E-7
-12.694500	-2.599554E-7
-12.688500	-3.741588E-7
-12.682500	-3.868481E-7
-12.676500	-3.234018E-7
-12.670500	-9.080395E-8
-12.664500	-1.288718E-7
-12.658500	-5.273614E-8
-12.652500	-2.133893E-7
-12.646500	-3.572786E-7
-12.640500	-1.457520E-7
-12.634500	-8.230563E-8
-12.628500	-3.445894E-7
-12.622500	-3.868481E-7
-12.616500	-4.376052E-7
-12.610500	-3.995374E-7
-12.604500	-3.319001E-7
-12.598500	-2.853340E-7
-12.592500	-3.741588E-7
-12.586500	-3.107125E-7
-12.580500	-2.557645E-7
-12.574500	-1.584413E-7
-12.568000	-1.880107E-7
-12.562000	-1.965091E-7
-12.556000	-3.360910E-7
-12.550000	-3.445894E-7
-12.544000	-1.923181E-7
-12.538000	-2.050074E-7
-12.532000	-3.275927E-7
-12.526000	-2.430752E-7
-12.520000	-1.669396E-7
-12.514000	-2.430752E-7
-12.508000	-2.853340E-7
-12.502000	-4.461035E-7
-12.496000	-4.502945E-7
-12.490000	-1.923181E-7
-12.484000	-6.542541E-8
-12.478000	-1.627486E-7
-12.472000	-2.176967E-7
-12.466000	-1.880107E-7
-12.460000	-2.599554E-7
-12.454000	-1.500593E-7
-12.448000	-3.910391E-7
-12.442000	-4.122267E-7
-12.436000	-3.656605E-7
-12.430000	-2.726447E-7
-12.424000	-2.430752E-7
-12.418000	-1.965091E-7
-12.412000	-2.557645E-7
-12.406000	-3.275927E-7
-12.400000	-1.838198E-7
-12.394000	-6.961636E-8
-12.388000	-1.584413E-7
-12.382000	-2.007000E-7
-12.376000	-2.387678E-7
-12.370000	-2.316665E-8
-12.364000	-1.119915E-7
-12.358000	-1.288718E-7
-12.352000	-3.953464E-7
-12.346000	-2.980232E-7
-12.340000	-2.853340E-7
-12.334000	-2.895249E-7
-12.328000	-5.137408E-7
-12.322000	-4.841713E-7
-12.316000	-4.587928E-7
-12.310000	-1.034932E-7
-12.304000	-2.133893E-7
-12.298000	-1.627486E-7
-12.292000	-1.923181E-7
-12.286000	-2.472661E-7
-12.280000	-3.487803E-7
-12.274000	-9.499490E-8
-12.268000	-3.107125E-7
-12.262000	-5.095499E-7
-12.256000	-2.557645E-7
-12.250000	-4.291069E-7
-12.244000	-3.995374E-7
-12.238000	-3.783498E-7
-12.232000	-3.192108E-7
-12.226000	-2.387678E-7
-12.220000	-2.091983E-7
-12.214000	-1.203734E-7
-12.208000	-3.585592E-8
-12.202000	-2.641464E-7
-12.196000	-2.430752E-7
-12.190000	-5.273614E-8
-12.184000	-2.895249E-7
-12.178000	-4.854519E-8
-12.172000	-4.376052E-7
-12.166000	-4.291069E-7
-12.160000	-2.303859E-7
-12.154000	-3.402820E-7
-12.148000	-3.107125E-7
-12.142000	-3.234018E-7
-12.136000	-5.518086E-7
-12.130000	-1.457520E-7
-12.124000	-9.499490E-8
-12.118000	-6.961636E-8
-12.112000	-2.260786E-7
-12.106000	-2.430752E-7
-12.100000	-2.895249E-7
-12.094000	-2.176967E-7
-12.088000	-1.796288E-7
-12.082000	-3.995374E-7
-12.076000	-3.868481E-7
-12.070000	-4.417961E-7
-12.064000	-1.457520E-7
-12.058000	-2.811430E-7
-12.052000	-2.430752E-7
-12.046000	-2.641464E-7
-12.040000	-3.529713E-7
-12.034000	-9.930227E-8
-12.028000	-6.542541E-8
-12.022000	-1.880107E-7
-12.016000	-2.472661E-7
-12.010000	-2.684537E-7
-12.004000	-6.961636E-8
-11.998000	-1.466833E-8
-11.992000	-4.080357E-7
-11.986000	-5.179318E-7
-11.980000	-3.783498E-7
-11.974000	-2.514571E-7
-11.968000	-2.726447E-7
-11.962000	-2.980232E-7
-11.956000	-2.980232E-7
-11.950000	-3.699679E-7
-11.944000	-7.811468E-8
-11.938000	-2.091983E-7
-11.932000	-1.246808E-7
-11.926000	-1.838198E-7
-11.920000	-2.345769E-7
-11.914000	-2.007000E-7
-11.908000	-2.557645E-7
-11.902000	-4.502945E-7
-11.896000	-3.445894E-7
-11.890000	-3.741588E-7
-11.884000	-2.768356E-7
-11.878000	-2.980232E-7
-11.871500	-1.838198E-7
-11.865500	-2.514571E-7
-11.859500	-2.768356E-7
-11.853500	-8.661300E-8
-11.847500	-6.123446E-8
-11.841500	-2.303859E-7
-11.835500	-1.923181E-7
-11.829500	-2.472661E-7
-11.823500	1.459848E-7
-11.817500	-2.735760E-8
-11.811500	-3.107125E-7
-11.805500	-2.938323E-7
-11.799500	-3.107125E-7
-11.793500	-1.542503E-7
-11.787500	-2.938323E-7
-11.781500	-4.629837E-7
-11.775500	-4.798640E-7
-11.769500	-4.037283E-7
-11.763500	-7.392373E-8
-11.757500	-9.499490E-8
-11.751500	-1.965091E-7
-11.745500	-2.007000E-7
-11.739500	-2.050074E-7
-11.733500	-4.461035E-7
-11.727500	-2.303859E-7
-11.721500	-1.288718E-7
-11.715500	-2.980232E-7
-11.709500	-3.487803E-7
-11.703500	-4.461035E-7
-11.697500	-1.373701E-7
-11.691500	-2.684537E-7
-11.685500	-5.391194E-7
-11.679500	-5.644979E-7
-11.673500	-3.319001E-7
-11.667500	-1.373701E-7
-11.661500	-9.499490E-8
-11.655500	-2.387678E-7
-11.649500	-2.303859E-7
-11.643500	8.684583E-8
-11.637500	-6.542541E-8
-11.631500	-1.885928E-8
-11.625500	-5.095499E-7
-11.619500	-3.699679E-7
-11.613500	-4.080357E-7
-11.607500	-2.387678E-7
-11.601500	-2.472661E-7
-11.595500	-4.925532E-7
-11.589500	-4.756730E-7
-11.583500	-2.684537E-7
-11.577500	3.608875E-8
-11.571500	-1.246808E-7
-11.565500	-2.514571E-7
-11.559500	-2.176967E-7
-11.553500	-2.007000E-7
-11.547500	-1.796288E-7
-11.541500	-1.373701E-7
-11.535500	-3.783498E-7
-11.529500	-3.656605E-7
-11.523500	-3.065215E-7
-11.517500	-2.091983E-7
-11.511500	-2.176967E-7
-11.505500	-1.373701E-7
-11.499500	-2.091983E-7
-11.493500	-1.838198E-7
-11.487500	-1.711305E-7
-11.481500	-1.415610E-7
-11.475500	-2.007000E-7
-11.469500	-3.149034E-7
-11.463500	5.296897E-8
-11.457500	-1.457520E-7
-11.451500	-4.004687E-8
-11.445500	-3.656605E-7
-11.439500	-3.656605E-7
-11.433500	-3.234018E-7
-11.427500	-1.457520E-7
-11.421500	-2.895249E-7
-11.415500	-2.007000E-7
-11.409500	-3.995374E-7
-11.403500	-2.007000E-7
-11.397500	-7.811468E-8
-11.391500	-4.854519E-8
-11.385500	-1.880107E-7
-11.379500	-3.107125E-7
-11.373500	-3.065215E-7
-11.367500	-2.050074E-7
-11.361500	-5.692709E-8
-11.355500	-2.938323E-7
-11.349500	-3.529713E-7
-11.343500	-2.684537E-7
-11.337500	-2.853340E-7
-11.331500	-2.514571E-7
-11.325500	-9.930227E-8
-11.319500	-2.599554E-7
-11.313500	-2.387678E-7
-11.307500	-1.457520E-7
-11.301500	-3.487803E-7
-11.295500	-2.007000E-7
-11.289500	-2.050074E-7
-11.283500	-2.684537E-7
-11.277500	-2.345769E-7
-11.271500	6.146729E-8
-11.265500	-2.007000E-7
-11.259500	-3.445894E-7
-11.253500	-3.614696E-7
-11.247500	-3.699679E-7
-11.241500	-3.445894E-7
-11.235500	-3.699679E-7
-11.229500	-3.445894E-7
-11.223500	-3.699679E-7
-11.217500	-1.034932E-7
-11.211500	-9.499490E-8
-11.205500	-6.961636E-8
-11.199500	-2.557645E-7
-11.193500	-1.669396E-7
-11.187500	-2.091983E-7
-11.181000	-2.303859E-7
-11.175000	-1.754379E-7
-11.169000	-3.149034E-7
-11.163000	-3.445894E-7
-11.157000	-2.514571E-7
-11.151000	-2.684537E-7
-11.145000	-3.192108E-7
-11.139000	-1.711305E-7
-11.133000	-3.149034E-7
-11.127000	-1.796288E-7
-11.121000	-9.930227E-8
-11.115000	-9.080395E-8
-11.109000	-2.726447E-7
-11.103000	-1.542503E-7
-11.097000	-1.885928E-8
-11.091000	-2.007000E-7
-11.085000	-7.392373E-8
-11.079000	-4.207250E-7
-11.073000	-3.868481E-7
-11.067000	-2.641464E-7
-11.061000	-2.514571E-7
-11.055000	-3.319001E-7
-11.049000	-4.080357E-7
-11.043000	-3.487803E-7
-11.037000	-8.661300E-8
-11.031000	1.490116E-8
-11.025000	-1.796288E-7
-11.019000	-1.923181E-7
-11.013000	-2.091983E-7
-11.007000	-3.614696E-7
-11.001000	-2.387678E-7
-10.995000	-1.584413E-7
-10.989000	-3.275927E-7
-10.983000	-2.853340E-7
-10.977000	-2.895249E-7
-10.971000	-2.050074E-7
-10.965000	-1.246808E-7
-10.959000	-4.756730E-7
-10.953000	-4.291069E-7
-10.947000	-1.288718E-7
-10.941000	-7.811468E-8
-10.935000	-7.811468E-8
-10.929000	-1.796288E-7
-10.923000	-2.345769E-7
-10.917000	1.671724E-7
-10.911000	1.490116E-8
-10.905000	2.339948E-8
-10.899000	-3.953464E-7
-10.893000	-4.756730E-7
-10.887000	-2.895249E-7
-10.881000	-3.487803E-7
-10.875000	-2.345769E-7
-10.869000	-4.629837E-7
-10.863000	-4.714821E-7
-10.857000	-2.641464E-7
-10.851000	-2.316665E-8
-10.845000	-4.854519E-8
-10.839000	-1.711305E-7
-10.833000	-1.965091E-7
-10.827000	-1.373701E-7
-10.821000	-3.868481E-7
-10.815000	-2.007000E-7
-10.809000	-1.711305E-7
-10.803000	-4.417961E-7
-10.797000	-3.360910E-7
-10.791000	-3.826572E-7
-10.785000	-2.472661E-7
-10.779000	-3.529713E-7
-10.773000	-4.334142E-7
-10.767000	-3.445894E-7
-10.761000	-2.316665E-8
-10.755000	2.211891E-9
-10.749000	-4.423782E-8
-10.743000	-2.176967E-7
-10.737000	-2.091983E-7
-10.731000	-5.692709E-8
-10.725000	2.759043E-8
-10.719000	-2.980232E-7
-10.713000	-3.741588E-7
-10.707000	-3.275927E-7
-10.701000	-2.176967E-7
-10.695000	-2.007000E-7
-10.689000	-1.838198E-7
-10.683000	-2.514571E-7
-10.677000	-1.288718E-7
-10.671000	-1.076842E-7
-10.665000	-1.754379E-7
-10.659000	-1.034932E-7
-10.653000	-1.330627E-7
-10.647000	-2.938323E-7
-10.641000	-1.034932E-7
-10.635000	-1.288718E-7
-10.629000	-1.246808E-7
-10.623000	-3.192108E-7
-10.617000	-3.149034E-7
-10.611000	-1.246808E-7
-10.605000	-3.529713E-7
-10.599000	-5.771872E-7
-10.593000	-5.391194E-7
-10.587000	-4.080357E-7
-10.581000	-3.585592E-8
-10.575000	-2.735760E-8
-10.569000	-1.923181E-7
-10.563000	-2.980232E-7
-10.557000	-2.387678E-7
-10.551000	-1.669396E-7
-10.545000	-1.466833E-8
-10.539000	-2.811430E-7
-10.533000	-3.234018E-7
-10.527000	-3.107125E-7
-10.521000	-2.726447E-7
-10.515000	-2.176967E-7
-10.509000	-2.853340E-7
-10.503000	-3.868481E-7
-10.497000	-4.164176E-7
-10.491000	-5.692709E-8
-10.484500	-5.692709E-8
-10.478500	-6.170012E-9
-10.472500	-1.627486E-7
-10.466500	-1.330627E-7
-10.460500	6.146729E-8
-10.454500	1.071021E-8
-10.448500	-1.669396E-7
-10.442500	-4.249159E-7
-10.436500	-3.487803E-7
-10.430500	-3.529713E-7
-10.424500	-2.260786E-7
-10.418500	-3.699679E-7
-10.412500	-4.164176E-7
-10.406500	-3.656605E-7
-10.400500	-4.004687E-8
-10.394500	-4.854519E-8
-10.388500	-6.961636E-8
-10.382500	-1.880107E-7
-10.376500	-3.445894E-7
-10.370500	-1.119915E-7
-10.364500	-1.203734E-7
-10.358500	-1.500593E-7
-10.352500	-2.641464E-7
-10.346500	-3.445894E-7
-10.340500	-3.192108E-7
-10.334500	-2.387678E-7
-10.328500	-1.373701E-7
-10.322500	-2.853340E-7
-10.316500	-3.234018E-7
-10.310500	-3.699679E-7
-10.304500	-1.466833E-8
-10.298500	-1.034932E-7
-10.292500	-9.499490E-8
-10.286500	-2.980232E-7
-10.280500	7.834751E-8
-10.274500	6.565824E-8
-10.268500	-5.692709E-8
-10.262500	-3.234018E-7
-10.256500	-3.234018E-7
-10.250500	-3.192108E-7
-10.244500	-9.499490E-8
-10.238500	-2.557645E-7
-10.232500	-1.796288E-7
-10.226500	-8.661300E-8
-10.220500	-1.542503E-7
-10.214500	4.027970E-8
-10.208500	-2.735760E-8
-10.202500	-2.176967E-7
-10.196500	-3.585592E-8
-10.190500	-2.260786E-7
-10.184500	-1.203734E-7
-10.178500	-1.627486E-7
-10.172500	-2.726447E-7
-10.166500	-3.572786E-7
-10.160500	-2.980232E-7
-10.154500	-3.234018E-7
-10.148500	-1.542503E-7
-10.142500	-2.050074E-7
-10.136500	-2.176967E-7
-10.130500	-1.415610E-7
-10.124500	-1.979060E-9
-10.118500	-5.692709E-8
-10.112500	-8.661300E-8
-10.106500	-1.627486E-7
-10.100500	-6.961636E-8
-10.094500	1.037261E-7
-10.088500	-5.273614E-8
-10.082500	-4.629837E-7
-10.076500	-3.529713E-7
-10.070500	-2.050074E-7
-10.064500	-2.430752E-7
-10.058500	-2.133893E-7
-10.052500	-7.811468E-8
-10.046500	-2.316665E-8
-10.040500	-2.091983E-7
-10.034500	-5.692709E-8
-10.028500	-1.466833E-8
-10.022500	-9.930227E-8
-10.016500	-1.161825E-7
-10.010500	-1.034932E-7
-10.004500	-1.627486E-7
-9.998500	4.877802E-8
-9.992500	-2.007000E-7
-9.986500	-2.768356E-7
-9.980500	-2.811430E-7
-9.974500	-1.161825E-7
-9.968500	-1.754379E-7
-9.962500	-2.599554E-7
-9.956500	-2.133893E-7
-9.950500	-2.895249E-7
-9.944500	2.211891E-9
-9.938500	1.920853E-8
-9.932500	-1.161825E-7
-9.926500	-1.076842E-7
-9.920500	-2.218876E-7
-9.914500	1.071021E-8
-9.908500	2.759043E-8
-9.902500	-3.022142E-7
-9.896500	-3.995374E-7
-9.890500	-1.542503E-7
-9.884500	-1.754379E-7
-9.878500	-2.811430E-7
-9.872500	-1.542503E-7
-9.866500	-2.218876E-7
-9.860500	-1.119915E-7
-9.854500	-1.119915E-7
-9.848500	6.519258E-9
-9.842500	2.759043E-8
-9.836500	-1.119915E-7
-9.830500	-4.423782E-8
-9.824500	9.522773E-8
-9.818500	-1.034932E-7
-9.812500	-5.692709E-8
-9.806500	-2.303859E-7
-9.800000	-2.218876E-7
-9.794000	-1.711305E-7
-9.788000	-1.542503E-7
-9.782000	-1.965091E-7
-9.776000	-3.319001E-7
-9.770000	-3.360910E-7
-9.764000	-4.004687E-8
-9.758000	1.206063E-7
-9.752000	1.920853E-8
-9.746000	-2.735760E-8
-9.740000	-4.423782E-8
-9.734000	-5.273614E-8
-9.728000	7.834751E-8
-9.722000	7.415656E-8
-9.716000	-2.303859E-7
-9.710000	-3.234018E-7
-9.704000	-1.627486E-7
-9.698000	4.877802E-8
-9.692000	-2.811430E-7
-9.686000	-8.661300E-8
-9.680000	-7.811468E-8
-9.674000	-4.423782E-8
-9.668000	1.502922E-7
-9.662000	6.996561E-8
-9.656000	-2.735760E-8
-9.650000	-6.170012E-9
-9.644000	1.798617E-7
-9.638000	1.122244E-7
-9.632000	2.643792E-7
-9.626000	-2.260786E-7
-9.620000	-1.711305E-7
-9.614000	-8.661300E-8
-9.608000	-4.004687E-8
-9.602000	-1.119915E-7
-9.596000	-2.811430E-7
-9.590000	-2.345769E-7
-9.584000	1.544831E-7
-9.578000	1.628650E-7
-9.572000	1.122244E-7
-9.566000	9.953510E-8
-9.560000	-1.923181E-7
-9.554000	6.146729E-8
-9.548000	1.291046E-7
-9.542000	7.834751E-8
-9.536000	-2.050074E-7
-9.530000	-1.542503E-7
-9.524000	-6.170012E-9
-9.518000	1.291046E-7
-9.512000	-1.047738E-8
-9.506000	-1.979060E-9
-9.500000	-3.154855E-8
-9.494000	-1.979060E-9
-9.488000	1.925509E-7
-9.482000	1.967419E-7
-9.476000	6.565824E-8
-9.470000	1.122244E-7
-9.464000	2.433080E-7
-9.458000	2.009328E-7
-9.452000	1.417939E-7
-9.446000	-1.542503E-7
-9.440000	-4.004687E-8
-9.434000	-2.735760E-8
-9.428000	1.037261E-7
-9.422000	9.103678E-8
-9.416000	-2.091983E-7
-9.410000	3.189780E-8
-9.404000	-1.161825E-7
-9.398000	2.897577E-7
-9.392000	2.940651E-7
-9.386000	2.601882E-7
-9.380000	6.996561E-8
-9.374000	8.253846E-8
-9.368000	2.759043E-8
-9.362000	1.713634E-7
-9.356000	7.834751E-8
-9.350000	-7.392373E-8
-9.344000	-6.123446E-8
-9.338000	1.122244E-7
-9.332000	2.009328E-7
-9.326000	1.502922E-7
-9.320000	1.291046E-7
-9.314000	2.306188E-7
-9.308000	3.912719E-7
-9.302000	3.151363E-7
-9.296000	3.997702E-7
-9.290000	2.433080E-7
-9.284000	2.306188E-7
-9.278000	2.982561E-7
-9.272000	3.278255E-7
-9.266000	2.136221E-7
-9.260000	1.332955E-7
-9.254000	2.559973E-7
-9.248000	1.037261E-7
-9.242000	2.601882E-7
-9.236000	2.813758E-7
-9.230000	8.684583E-8
-9.224000	1.459848E-7
-9.218000	6.492482E-7
-9.212000	5.689217E-7
-9.206000	5.647307E-7
-9.200000	4.378380E-7
-9.194000	5.096663E-7
-9.188000	5.054753E-7
-9.182000	5.054753E-7
-9.176000	4.335307E-7
-9.170000	3.828900E-7
-9.164000	3.490131E-7
-9.158000	4.420290E-7
-9.152000	4.715985E-7
-9.146000	5.054753E-7
-9.140000	4.715985E-7
-9.134000	4.378380E-7
-9.128000	5.984912E-7
-9.122000	7.888302E-7
-9.116000	6.746268E-7
-9.109500	5.816109E-7
-9.103500	4.674075E-7
-9.097500	8.395873E-7
-9.091500	7.465715E-7
-9.085500	6.619375E-7
-9.079500	4.081521E-7
-9.073500	5.984912E-7
-9.067500	4.759058E-7
-9.061500	6.323680E-7
-9.055500	7.719500E-7
-9.049500	6.196788E-7
-9.043500	4.674075E-7
-9.037500	8.395873E-7
-9.031500	8.522766E-7
-9.025500	8.310890E-7
-9.019500	8.227071E-7
-9.013500	8.268980E-7
-9.007500	9.960495E-7
-9.001500	9.411015E-7
-8.995500	9.199139E-7
-8.989500	6.365590E-7
-8.983500	7.549534E-7
-8.977500	8.268980E-7
-8.971500	8.903444E-7
-8.965500	1.008739E-6
-8.959500	1.067878E-6
-8.953500	9.284122E-7
-8.947500	9.157229E-7
-8.941500	1.139822E-6
-8.935500	1.127133E-6
-8.929500	1.131324E-6
-8.923500	9.579817E-7
-8.917500	1.110253E-6
-8.911500	1.313165E-6
-8.905500	1.283595E-6
-8.899500	1.199078E-6
-8.893500	1.017237E-6
-8.887500	1.059496E-6
-8.881500	1.139822E-6
-8.875500	1.313165E-6
-8.869500	1.034117E-6
-8.863500	1.046807E-6
-8.857500	1.110253E-6
-8.851500	1.524691E-6
-8.845500	1.457054E-6
-8.839500	1.482433E-6
-8.833500	1.410488E-6
-8.827500	1.507695E-6
-8.821500	1.681154E-6
-8.815500	1.626206E-6
-8.809500	1.499313E-6
-8.803500	1.334352E-6
-8.797500	1.533073E-6
-8.791500	1.499313E-6
-8.785500	1.588138E-6
-8.779500	1.609209E-6
-8.773500	1.702341E-6
-8.767500	1.621898E-6
-8.761500	1.816428E-6
-8.755500	1.930632E-6
-8.749500	1.917942E-6
-8.743500	1.947512E-6
-8.737500	1.930632E-6
-8.731500	1.939130E-6
-8.725500	2.027955E-6
-8.719500	2.040644E-6
-8.713500	1.913751E-6
-8.707500	1.917942E-6
-8.701500	1.964509E-6
-8.695500	2.137851E-6
-8.689500	2.112472E-6
-8.683500	2.078712E-6
-8.677500	2.002576E-6
-8.671500	2.400018E-6
-8.665500	2.357760E-6
-8.659500	2.493151E-6
-8.653500	2.543908E-6
-8.647500	2.429704E-6
-8.641500	2.636923E-6
-8.635500	2.734130E-6
-8.629500	2.586166E-6
-8.623500	2.404326E-6
-8.617500	2.412708E-6
-8.611500	2.594665E-6
-8.605500	2.844143E-6
-8.599500	2.776505E-6
-8.593500	2.674991E-6
-8.587500	2.810266E-6
-8.581500	2.996414E-6
-8.575500	3.034482E-6
-8.569500	3.064051E-6
-8.563500	3.110501E-6
-8.557500	3.288151E-6
-8.551500	3.131689E-6
-8.545500	3.229012E-6
-8.539500	3.351597E-6
-8.533500	3.267080E-6
-8.527500	3.389665E-6
-8.521500	3.389665E-6
-8.515500	3.533438E-6
-8.509500	3.651832E-6
-8.503500	3.601075E-6
-8.497500	3.770227E-6
-8.491500	3.702589E-6
-8.485500	3.884430E-6
-8.479500	4.057889E-6
-8.473500	4.091649E-6
-8.467500	3.884430E-6
-8.461500	4.146714E-6
-8.455500	4.311558E-6
-8.449500	4.489208E-6
-8.443500	4.222733E-6
-8.437500	4.218542E-6
-8.431500	4.222733E-6
-8.425500	4.425761E-6
-8.419000	4.641479E-6
-8.413000	4.666857E-6
-8.407000	4.624482E-6
-8.401000	4.730304E-6
-8.395000	5.102367E-6
-8.389000	5.000969E-6
-8.383000	5.148933E-6
-8.377000	5.170121E-6
-8.371000	5.216571E-6
-8.365000	5.296897E-6
-8.359000	5.550683E-6
-8.353000	5.487236E-6
-8.347000	5.381531E-6
-8.341000	5.491544E-6
-8.335000	5.817157E-6
-8.329000	5.766400E-6
-8.323000	5.943934E-6
-8.317000	6.075134E-6
-8.311000	6.100512E-6
-8.305000	6.278045E-6
-8.299000	6.443006E-6
-8.293000	6.485265E-6
-8.287000	6.527640E-6
-8.281000	6.696791E-6
-8.275000	6.646034E-6
-8.269000	6.891321E-6
-8.263000	7.085851E-6
-8.257000	6.988528E-6
-8.251000	7.144990E-6
-8.245000	7.115421E-6
-8.239000	7.242314E-6
-8.233000	7.381896E-6
-8.227000	7.415656E-6
-8.221000	7.589115E-6
-8.215000	7.872470E-6
-8.209000	8.092378E-6
-8.203000	8.100760E-6
-8.197000	8.219155E-6
-8.191000	8.379924E-6
-8.185000	8.658972E-6
-8.179000	8.599833E-6
-8.173000	8.815550E-6
-8.167000	8.680159E-6
-8.161000	8.849311E-6
-8.155000	9.031151E-6
-8.149000	9.251060E-6
-8.143000	9.318697E-6
-8.137000	9.640120E-6
-8.131000	9.559793E-6
-8.125000	9.944662E-6
-8.119000	9.948853E-6
-8.113000	1.021952E-5
-8.107000	1.024490E-5
-8.101000	1.027028E-5
-8.095000	1.068891E-5
-8.089000	1.079892E-5
-8.083000	1.095957E-5
-8.077000	1.080742E-5
-8.071000	1.096388E-5
-8.065000	1.136563E-5
-8.059000	1.136982E-5
-8.053000	1.149671E-5
-8.047000	1.192803E-5
-8.041000	1.195760E-5
-8.035000	1.214375E-5
-8.029000	1.238054E-5
-8.023000	1.256668E-5
-8.017000	1.277390E-5
-8.011000	1.284154E-5
-8.005000	1.313328E-5
-7.999000	1.329824E-5
-7.993000	1.339125E-5
-7.987000	1.358159E-5
-7.981000	1.365354E-5
-7.975000	1.383107E-5
-7.969000	1.410604E-5
-7.963000	1.436402E-5
-7.957000	1.449930E-5
-7.951000	1.487567E-5
-7.945000	1.490954E-5
-7.939000	1.516752E-5
-7.933000	1.542550E-5
-7.927000	1.568766E-5
-7.921000	1.577218E-5
-7.915000	1.604285E-5
-7.909000	1.628394E-5
-7.903000	1.634320E-5
-7.897000	1.666881E-5
-7.891000	1.667300E-5
-7.885000	1.687172E-5
-7.879000	1.727359E-5
-7.873000	1.750188E-5
-7.867000	1.772610E-5
-7.861000	1.804740E-5
-7.855000	1.820817E-5
-7.849000	1.832237E-5
-7.843000	1.874950E-5
-7.837000	1.906662E-5
-7.831000	1.937535E-5
-7.825000	1.932459E-5
-7.819000	1.970096E-5
-7.813000	2.004358E-5
-7.807000	2.036919E-5
-7.801000	2.044102E-5
-7.795000	2.069480E-5
-7.789000	2.091052E-5
-7.783000	2.131227E-5
-7.777000	2.153637E-5
-7.771000	2.186198E-5
-7.765000	2.225954E-5
-7.759000	2.227642E-5
-7.752500	2.284313E-5
-7.746500	2.302497E-5
-7.740500	2.333790E-5
-7.734500	2.373965E-5
-7.728500	2.397655E-5
-7.722500	2.425991E-5
-7.716500	2.451357E-5
-7.710500	2.487306E-5
-7.704500	2.504652E-5
-7.698500	2.523256E-5
-7.692500	2.567656E-5
-7.686500	2.605293E-5
-7.680500	2.638705E-5
-7.674500	2.675073E-5
-7.668500	2.699601E-5
-7.662500	2.751197E-5
-7.656500	2.774876E-5
-7.650500	2.820557E-5
-7.644500	2.830708E-5
-7.638500	2.878497E-5
-7.632500	2.914434E-5
-7.626500	2.949545E-5
-7.620500	2.966460E-5
-7.614500	3.004936E-5
-7.608500	3.039616E-5
-7.602500	3.078103E-5
-7.596500	3.117009E-5
-7.590500	3.171561E-5
-7.584500	3.200746E-5
-7.578500	3.240502E-5
-7.572500	3.259524E-5
-7.566500	3.312808E-5
-7.560500	3.361446E-5
-7.554500	3.395707E-5
-7.548500	3.437570E-5
-7.542500	3.477745E-5
-7.536500	3.526383E-5
-7.530500	3.565708E-5
-7.524500	3.596162E-5
-7.518500	3.631262E-5
-7.512500	3.671006E-5
-7.506500	3.704848E-5
-7.500500	3.759819E-5
-7.494500	3.804651E-5
-7.488500	3.839750E-5
-7.482500	3.885420E-5
-7.476500	3.951823E-5
-7.470500	4.000450E-5
-7.464500	4.038087E-5
-7.458500	4.090951E-5
-7.452500	4.123943E-5
-7.446500	4.197529E-5
-7.440500	4.239392E-5
-7.434500	4.271534E-5
-7.428500	4.296901E-5
-7.422500	4.353991E-5
-7.416500	4.410243E-5
-7.410500	4.470721E-5
-7.404500	4.533306E-5
-7.398500	4.578975E-5
-7.392500	4.633958E-5
-7.386500	4.723610E-5
-7.380500	4.857674E-5
-7.374500	5.031913E-5
-7.368500	5.143555E-5
-7.362500	5.209527E-5
-7.356500	5.258166E-5
-7.350500	5.333009E-5
-7.344500	5.385035E-5
-7.338500	5.434093E-5
-7.332500	5.476805E-5
-7.326500	5.540240E-5
-7.320500	5.604944E-5
-7.314500	5.650194E-5
-7.308500	5.717855E-5
-7.302500	5.769450E-5
-7.296500	5.831616E-5
-7.290500	5.899277E-5
-7.284500	5.974981E-5
-7.278500	6.032921E-5
-7.272500	6.084517E-5
-7.266500	6.157672E-5
-7.260500	6.211386E-5
-7.254500	6.275659E-5
-7.248500	6.339094E-5
-7.242500	6.396614E-5
-7.236500	6.462587E-5
-7.230500	6.530248E-5
-7.224500	6.602146E-5
-7.218500	6.667688E-5
-7.212500	6.728596E-5
-7.206500	6.795838E-5
-7.200500	6.875338E-5
-7.194500	6.945536E-5
-7.188500	7.018284E-5
-7.182500	7.077062E-5
-7.176500	7.138809E-5
-7.170500	7.222546E-5
-7.164500	7.296551E-5
-7.158500	7.375213E-5
-7.152500	7.425109E-5
-7.146500	7.498276E-5
-7.140500	7.575669E-5
-7.134500	7.653481E-5
-7.128000	7.727486E-5
-7.122000	7.802760E-5
-7.116000	7.870852E-5
-7.110000	7.956696E-5
-7.104000	8.042972E-5
-7.098000	8.119096E-5
-7.092000	8.200714E-5
-7.086000	8.274720E-5
-7.080000	8.353801E-5
-7.074000	8.436688E-5
-7.068000	8.514500E-5
-7.062000	8.603733E-5
-7.056000	8.657866E-5
-7.050000	8.743722E-5
-7.044000	8.832105E-5
-7.038000	8.916680E-5
-7.032000	9.000849E-5
-7.026000	9.096414E-5
-7.020000	9.170000E-5
-7.014000	9.244855E-5
-7.008000	9.347626E-5
-7.002000	9.436859E-5
-6.996000	9.513402E-5
-6.990000	9.602215E-5
-6.984000	9.690179E-5
-6.978000	9.786175E-5
-6.972000	9.877514E-5
-6.966000	9.961252E-5
-6.960000	0.000101
-6.954000	0.000101
-6.948000	0.000102
-6.942000	0.000103
-6.936000	0.000104
-6.930000	0.000105
-6.924000	0.000106
-6.918000	0.000107
-6.912000	0.000108
-6.906000	0.000109
-6.900000	0.000110
-6.894000	0.000111
-6.888000	0.000112
-6.882000	0.000113
-6.876000	0.000114
-6.870000	0.000115
-6.864000	0.000116
-6.858000	0.000117
-6.852000	0.000118
-6.846000	0.000119
-6.840000	0.000120
-6.834000	0.000121
-6.828000	0.000122
-6.822000	0.000123
-6.816000	0.000124
-6.810000	0.000125
-6.804000	0.000126
-6.798000	0.000127
-6.792000	0.000128
-6.786000	0.000129
-6.780000	0.000130
-6.774000	0.000131
-6.768000	0.000132
-6.762000	0.000133
-6.756000	0.000134
-6.750000	0.000135
-6.744000	0.000137
-6.738000	0.000138
-6.732000	0.000139
-6.726000	0.000140
-6.720000	0.000141
-6.714000	0.000142
-6.708000	0.000143
-6.702000	0.000144
-6.696000	0.000145
-6.690000	0.000146
-6.684000	0.000148
-6.678000	0.000149
-6.672000	0.000150
-6.666000	0.000151
-6.660000	0.000152
-6.654000	0.000153
-6.648000	0.000154
-6.642000	0.000155
-6.636000	0.000156
-6.630000	0.000157
-6.624000	0.000159
-6.618000	0.000160
-6.612000	0.000161
-6.606000	0.000162
-6.600000	0.000163
-6.594000	0.000164
-6.588000	0.000165
-6.582000	0.000166
-6.576000	0.000167
-6.570000	0.000168
-6.564000	0.000169
-6.558000	0.000170
-6.552000	0.000171
-6.546000	0.000172
-6.540000	0.000173
-6.534000	0.000174
-6.528000	0.000175
-6.522000	0.000176
-6.516000	0.000177
-6.510000	0.000178
-6.503500	0.000179
-6.497500	0.000180
-6.491500	0.000181
-6.485500	0.000182
-6.479500	0.000183
-6.473500	0.000184
-6.467500	0.000185
-6.461500	0.000186
-6.455500	0.000186
-6.449500	0.000187
-6.443500	0.000188
-6.437500	0.000189
-6.431500	0.000190
-6.425500	0.000191
-6.419500	0.000191
-6.413500	0.000192
-6.407500	0.000193
-6.401500	0.000193
-6.395500	0.000194
-6.389500	0.000195
-6.383500	0.000195
-6.377500	0.000196
-6.371500	0.000197
-6.365500	0.000197
-6.359500	0.000198
-6.353500	0.000198
-6.347500	0.000199
-6.341500	0.000200
-6.335500	0.000200
-6.329500	0.000201
-6.323500	0.000201
-6.317500	0.000201
-6.311500	0.000202
-6.305500	0.000203
-6.299500	0.000203
-6.293500	0.000203
-6.287500	0.000204
-6.281500	0.000204
-6.275500	0.000205
-6.269500	0.000205
-6.263500	0.000206
-6.257500	0.000206
-6.251500	0.000207
-6.245500	0.000207
-6.239500	0.000207
-6.233500	0.000208
-6.227500	0.000208
-6.221500	0.000208
-6.215500	0.000209
-6.209500	0.000209
-6.203500	0.000210
-6.197500	0.000210
-6.191500	0.000210
-6.185500	0.000211
-6.179500	0.000211
-6.173500	0.000212
-6.167500	0.000212
-6.161500	0.000212
-6.155500	0.000212
-6.149500	0.000213
-6.143500	0.000213
-6.137500	0.000213
-6.131500	0.000214
-6.125500	0.000214
-6.119500	0.000215
-6.113500	0.000215
-6.107500	0.000215
-6.101500	0.000215
-6.095500	0.000216
-6.089500	0.000216
-6.083500	0.000217
-6.077500	0.000217
-6.071500	0.000217
-6.065500	0.000218
-6.059500	0.000218
-6.053500	0.000218
-6.047500	0.000218
-6.041500	0.000219
-6.035500	0.000219
-6.029500	0.000219
-6.023500	0.000220
-6.017500	0.000220
-6.011500	0.000220
-6.005500	0.000220
-5.999500	0.000221
-5.993500	0.000221
-5.987500	0.000221
-5.981500	0.000222
-5.975500	0.000222
-5.969500	0.000222
-5.963500	0.000223
-5.957500	0.000223
-5.951500	0.000223
-5.945500	0.000223
-5.939500	0.000224
-5.933500	0.000224
-5.927500	0.000224
-5.921500	0.000224
-5.915500	0.000225
-5.909500	0.000225
-5.903500	0.000225
-5.897500	0.000226
-5.891500	0.000226
-5.885500	0.000226
-5.879000	0.000226
-5.873000	0.000227
-5.867000	0.000227
-5.861000	0.000227
-5.855000	0.000227
-5.849000	0.000228
-5.843000	0.000228
-5.837000	0.000228
-5.831000	0.000228
-5.825000	0.000229
-5.819000	0.000229
-5.813000	0.000229
-5.807000	0.000230
-5.801000	0.000230
-5.795000	0.000230
-5.789000	0.000230
-5.783000	0.000230
-5.777000	0.000231
-5.771000	0.000231
-5.765000	0.000231
-5.759000	0.000231
-5.753000	0.000232
-5.747000	0.000232
-5.741000	0.000232
-5.735000	0.000232
-5.729000	0.000232
-5.723000	0.000233
-5.717000	0.000233
-5.711000	0.000233
-5.705000	0.000233
-5.699000	0.000234
-5.693000	0.000234
-5.687000	0.000234
-5.681000	0.000234
-5.675000	0.000234
-5.669000	0.000235
-5.663000	0.000235
-5.657000	0.000235
-5.651000	0.000235
-5.645000	0.000235
-5.639000	0.000236
-5.633000	0.000236
-5.627000	0.000236
-5.621000	0.000237
-5.615000	0.000237
-5.609000	0.000237
-5.603000	0.000237
-5.597000	0.000237
-5.591000	0.000238
-5.585000	0.000238
-5.579000	0.000238
-5.573000	0.000238
-5.567000	0.000238
-5.561000	0.000238
-5.555000	0.000238
-5.549000	0.000239
-5.543000	0.000239
-5.537000	0.000239
-5.531000	0.000240
-5.525000	0.000240
-5.519000	0.000240
-5.513000	0.000240
-5.507000	0.000240
-5.501000	0.000241
-5.495000	0.000241
-5.489000	0.000241
-5.483000	0.000241
-5.477000	0.000241
-5.471000	0.000241
-5.465000	0.000242
-5.459000	0.000242
-5.453000	0.000242
-5.447000	0.000242
-5.441000	0.000242
-5.435000	0.000243
-5.429000	0.000243
-5.423000	0.000243
-5.417000	0.000243
-5.411000	0.000243
-5.405000	0.000243
-5.399000	0.000243
-5.393000	0.000244
-5.387000	0.000244
-5.381000	0.000244
-5.375000	0.000244
-5.369000	0.000244
-5.363000	0.000244
-5.357000	0.000245
-5.351000	0.000245
-5.345000	0.000245
-5.339000	0.000245
-5.333000	0.000245
-5.327000	0.000246
-5.321000	0.000246
-5.315000	0.000246
-5.309000	0.000246
-5.303000	0.000246
-5.297000	0.000246
-5.291000	0.000247
-5.285000	0.000247
-5.279000	0.000247
-5.273000	0.000247
-5.267000	0.000247
-5.261000	0.000248
-5.254500	0.000248
-5.248500	0.000248
-5.242500	0.000248
-5.236500	0.000248
-5.230500	0.000248
-5.224500	0.000248
-5.218500	0.000249
-5.212500	0.000249
-5.206500	0.000249
-5.200500	0.000249
-5.194500	0.000249
-5.188500	0.000249
-5.182500	0.000249
-5.176500	0.000249
-5.170500	0.000250
-5.164500	0.000250
-5.158500	0.000250
-5.152500	0.000250
-5.146500	0.000250
-5.140500	0.000250
-5.134500	0.000251
-5.128500	0.000251
-5.122500	0.000251
-5.116500	0.000251
-5.110500	0.000251
-5.104500	0.000251
-5.098500	0.000251
-5.092500	0.000252
-5.086500	0.000252
-5.080500	0.000252
-5.074500	0.000252
-5.068500	0.000252
-5.062500	0.000252
-5.056500	0.000252
-5.050500	0.000253
-5.044500	0.000253
-5.038500	0.000253
-5.032500	0.000253
-5.026500	0.000253
-5.020500	0.000253
-5.014500	0.000253
-5.008500	0.000254
-5.002500	0.000254
-4.996500	0.000254
-4.990500	0.000254
-4.984500	0.000254
-4.978500	0.000254
-4.972500	0.000254
-4.966500	0.000254
-4.960500	0.000255
-4.954500	0.000255
-4.948500	0.000255
-4.942500	0.000255
-4.936500	0.000255
-4.930500	0.000255
-4.924500	0.000255
-4.918500	0.000256
-4.912500	0.000256
-4.906500	0.000256
-4.900500	0.000256
-4.894500	0.000256
-4.888500	0.000256
-4.882500	0.000256
-4.876500	0.000256
-4.870500	0.000257
-4.864500	0.000257
-4.858500	0.000257
-4.852500	0.000257
-4.846500	0.000257
-4.840500	0.000257
-4.834500	0.000257
-4.828500	0.000257
-4.822500	0.000257
-4.816500	0.000258
-4.810500	0.000258
-4.804500	0.000258
-4.798500	0.000258
-4.792500	0.000258
-4.786500	0.000258
-4.780500	0.000258
-4.774500	0.000258
-4.768500	0.000259
-4.762500	0.000259
-4.756500	0.000259
-4.750500	0.000259
-4.744500	0.000259
-4.738500	0.000259
-4.732500	0.000259
-4.726500	0.000259
-4.720500	0.000259
-4.714500	0.000260
-4.708500	0.000260
-4.702500	0.000260
-4.696500	0.000260
-4.690500	0.000260
-4.684500	0.000260
-4.678500	0.000260
-4.672500	0.000260
-4.666500	0.000260
-4.660500	0.000260
-4.654500	0.000261
-4.648500	0.000261
-4.642500	0.000261
-4.636500	0.000261
-4.630000	0.000261
-4.624000	0.000261
-4.618000	0.000261
-4.612000	0.000261
-4.606000	0.000262
-4.600000	0.000262
-4.594000	0.000262
-4.588000	0.000262
-4.582000	0.000262
-4.576000	0.000262
-4.570000	0.000262
-4.564000	0.000262
-4.558000	0.000262
-4.552000	0.000262
-4.546000	0.000262
-4.540000	0.000263
-4.534000	0.000262
-4.528000	0.000263
-4.522000	0.000263
-4.516000	0.000263
-4.510000	0.000263
-4.504000	0.000263
-4.498000	0.000263
-4.492000	0.000263
-4.486000	0.000264
-4.480000	0.000264
-4.474000	0.000264
-4.468000	0.000264
-4.462000	0.000264
-4.456000	0.000264
-4.450000	0.000264
-4.444000	0.000264
-4.438000	0.000264
-4.432000	0.000264
-4.426000	0.000265
-4.420000	0.000265
-4.414000	0.000265
-4.408000	0.000265
-4.402000	0.000265
-4.396000	0.000265
-4.390000	0.000265
-4.384000	0.000265
-4.378000	0.000265
-4.372000	0.000265
-4.366000	0.000265
-4.360000	0.000266
-4.354000	0.000266
-4.348000	0.000266
-4.342000	0.000266
-4.336000	0.000266
-4.330000	0.000266
-4.324000	0.000266
-4.318000	0.000266
-4.312000	0.000266
-4.306000	0.000266
-4.300000	0.000266
-4.294000	0.000267
-4.288000	0.000267
-4.282000	0.000267
-4.276000	0.000267
-4.270000	0.000267
-4.264000	0.000267
-4.258000	0.000267
-4.252000	0.000267
-4.246000	0.000267
-4.240000	0.000267
-4.234000	0.000267
-4.228000	0.000268
-4.222000	0.000268
-4.216000	0.000268
-4.210000	0.000268
-4.204000	0.000268
-4.198000	0.000268
-4.192000	0.000268
-4.186000	0.000268
-4.180000	0.000268
-4.174000	0.000268
-4.168000	0.000268
-4.162000	0.000269
-4.156000	0.000269
-4.150000	0.000269
-4.144000	0.000269
-4.138000	0.000269
-4.132000	0.000269
-4.126000	0.000269
-4.120000	0.000269
-4.114000	0.000269
-4.108000	0.000269
-4.102000	0.000269
-4.096000	0.000269
-4.090000	0.000269
-4.084000	0.000269
-4.078000	0.000270
-4.072000	0.000270
-4.066000	0.000270
-4.060000	0.000270
-4.054000	0.000270
-4.048000	0.000270
-4.042000	0.000270
-4.036000	0.000270
-4.030000	0.000270
-4.024000	0.000270
-4.018000	0.000271
-4.012000	0.000271
-4.005500	0.000270
-3.999500	0.000271
-3.993500	0.000271
-3.987500	0.000271
-3.981500	0.000271
-3.975500	0.000271
-3.969500	0.000271
-3.963500	0.000271
-3.957500	0.000271
-3.951500	0.000271
-3.945500	0.000271
-3.939500	0.000271
-3.933500	0.000272
-3.927500	0.000272
-3.921500	0.000272
-3.915500	0.000272
-3.909500	0.000272
-3.903500	0.000272
-3.897500	0.000272
-3.891500	0.000272
-3.885500	0.000272
-3.879500	0.000272
-3.873500	0.000272
-3.867500	0.000272
-3.861500	0.000272
-3.855500	0.000273
-3.849500	0.000273
-3.843500	0.000273
-3.837500	0.000273
-3.831500	0.000273
-3.825500	0.000273
-3.819500	0.000273
-3.813500	0.000273
-3.807500	0.000273
-3.801500	0.000273
-3.795500	0.000273
-3.789500	0.000273
-3.783500	0.000273
-3.777500	0.000273
-3.771500	0.000274
-3.765500	0.000274
-3.759500	0.000274
-3.753500	0.000274
-3.747500	0.000274
-3.741500	0.000274
-3.735500	0.000274
-3.729500	0.000274
-3.723500	0.000274
-3.717500	0.000274
-3.711500	0.000274
-3.705500	0.000274
-3.699500	0.000274
-3.693500	0.000274
-3.687500	0.000274
-3.681500	0.000275
-3.675500	0.000275
-3.669500	0.000275
-3.663500	0.000275
-3.657500	0.000275
-3.651500	0.000275
-3.645500	0.000275
-3.639500	0.000275
-3.633500	0.000275
-3.627500	0.000275
-3.621500	0.000275
-3.615500	0.000275
-3.609500	0.000275
-3.603500	0.000275
-3.597500	0.000275
-3.591500	0.000276
-3.585500	0.000276
-3.579500	0.000276
-3.573500	0.000276
-3.567500	0.000276
-3.561500	0.000276
-3.555500	0.000276
-3.549500	0.000276
-3.543500	0.000276
-3.537500	0.000276
-3.531500	0.000276
-3.525500	0.000276
-3.519500	0.000276
-3.513500	0.000276
-3.507500	0.000276
-3.501500	0.000276
-3.495500	0.000277
-3.489500	0.000277
-3.483500	0.000277
-3.477500	0.000277
-3.471500	0.000277
-3.465500	0.000277
-3.459500	0.000277
-3.453500	0.000277
-3.447500	0.000277
-3.441500	0.000277
-3.435500	0.000277
-3.429500	0.000277
-3.423500	0.000277
-3.417500	0.000277
-3.411500	0.000277
-3.405500	0.000278
-3.399500	0.000278
-3.393500	0.000278
-3.387500	0.000278
-3.381000	0.000278
-3.375000	0.000278
-3.369000	0.000278
-3.363000	0.000278
-3.357000	0.000278
-3.351000	0.000278
-3.345000	0.000278
-3.339000	0.000278
-3.333000	0.000278
-3.327000	0.000278
-3.321000	0.000278
-3.315000	0.000278
-3.309000	0.000278
-3.303000	0.000279
-3.297000	0.000279
-3.291000	0.000279
-3.285000	0.000279
-3.279000	0.000279
-3.273000	0.000279
-3.267000	0.000279
-3.261000	0.000279
-3.255000	0.000279
-3.249000	0.000279
-3.243000	0.000279
-3.237000	0.000279
-3.231000	0.000279
-3.225000	0.000279
-3.219000	0.000279
-3.213000	0.000279
-3.207000	0.000279
-3.201000	0.000279
-3.195000	0.000279
-3.189000	0.000280
-3.183000	0.000280
-3.177000	0.000280
-3.171000	0.000280
-3.165000	0.000280
-3.159000	0.000280
-3.153000	0.000280
-3.147000	0.000280
-3.141000	0.000280
-3.135000	0.000280
-3.129000	0.000280
-3.123000	0.000280
-3.117000	0.000280
-3.111000	0.000280
-3.105000	0.000280
-3.099000	0.000280
-3.093000	0.000280
-3.087000	0.000280
-3.081000	0.000280
-3.075000	0.000280
-3.069000	0.000280
-3.063000	0.000280
-3.057000	0.000281
-3.051000	0.000281
-3.045000	0.000281
-3.039000	0.000281
-3.033000	0.000281
-3.027000	0.000281
-3.021000	0.000281
-3.015000	0.000281
-3.009000	0.000281
-3.003000	0.000281
-2.997000	0.000281
-2.991000	0.000281
-2.985000	0.000281
-2.979000	0.000281
-2.973000	0.000281
-2.967000	0.000281
-2.961000	0.000281
-2.955000	0.000281
-2.949000	0.000281
-2.943000	0.000282
-2.937000	0.000282
-2.931000	0.000282
-2.925000	0.000282
-2.919000	0.000282
-2.913000	0.000282
-2.907000	0.000282
-2.901000	0.000282
-2.895000	0.000282
-2.889000	0.000282
-2.883000	0.000282
-2.877000	0.000282
-2.871000	0.000282
-2.865000	0.000282
-2.859000	0.000282
-2.853000	0.000282
-2.847000	0.000282
-2.841000	0.000282
-2.835000	0.000282
-2.829000	0.000282
-2.823000	0.000282
-2.817000	0.000282
-2.811000	0.000283
-2.805000	0.000283
-2.799000	0.000282
-2.793000	0.000282
-2.787000	0.000283
-2.781000	0.000283
-2.775000	0.000283
-2.769000	0.000283
-2.763000	0.000283
-2.756500	0.000283
-2.750500	0.000283
-2.744500	0.000283
-2.738500	0.000283
-2.732500	0.000283
-2.726500	0.000283
-2.720500	0.000283
-2.714500	0.000283
-2.708500	0.000283
-2.702500	0.000283
-2.696500	0.000283
-2.690500	0.000283
-2.684500	0.000283
-2.678500	0.000283
-2.672500	0.000283
-2.666500	0.000283
-2.660500	0.000284
-2.654500	0.000284
-2.648500	0.000284
-2.642500	0.000284
-2.636500	0.000284
-2.630500	0.000284
-2.624500	0.000284
-2.618500	0.000284
-2.612500	0.000284
-2.606500	0.000284
-2.600500	0.000284
-2.594500	0.000284
-2.588500	0.000284
-2.582500	0.000284
-2.576500	0.000284
-2.570500	0.000284
-2.564500	0.000284
-2.558500	0.000284
-2.552500	0.000284
-2.546500	0.000284
-2.540500	0.000285
-2.534500	0.000285
-2.528500	0.000285
-2.522500	0.000284
-2.516500	0.000284
-2.510500	0.000284
-2.504500	0.000285
-2.498500	0.000285
-2.492500	0.000284
-2.486500	0.000284
-2.480500	0.000285
-2.474500	0.000285
-2.468500	0.000285
-2.462500	0.000285
-2.456500	0.000285
-2.450500	0.000285
-2.444500	0.000285
-2.438500	0.000285
-2.432500	0.000285
-2.426500	0.000285
-2.420500	0.000285
-2.414500	0.000285
-2.408500	0.000285
-2.402500	0.000285
-2.396500	0.000285
-2.390500	0.000285
-2.384500	0.000286
-2.378500	0.000286
-2.372500	0.000285
-2.366500	0.000285
-2.360500	0.000285
-2.354500	0.000286
-2.348500	0.000286
-2.342500	0.000286
-2.336500	0.000285
-2.330500	0.000285
-2.324500	0.000286
-2.318500	0.000286
-2.312500	0.000286
-2.306500	0.000286
-2.300500	0.000286
-2.294500	0.000286
-2.288500	0.000286
-2.282500	0.000286
-2.276500	0.000286
-2.270500	0.000286
-2.264500	0.000286
-2.258500	0.000286
-2.252500	0.000286
-2.246500	0.000286
-2.240500	0.000286
-2.234500	0.000286
-2.228500	0.000286
-2.222500	0.000286
-2.216500	0.000286
-2.210500	0.000286
-2.204500	0.000286
-2.198500	0.000286
-2.192500	0.000287
-2.186500	0.000287
-2.180500	0.000286
-2.174500	0.000287
-2.168500	0.000286
-2.162500	0.000287
-2.156500	0.000287
-2.150500	0.000287
-2.144500	0.000287
-2.138500	0.000287
-2.132000	0.000287
-2.126000	0.000287
-2.120000	0.000287
-2.114000	0.000287
-2.108000	0.000287
-2.102000	0.000287
-2.096000	0.000287
-2.090000	0.000287
-2.084000	0.000287
-2.078000	0.000287
-2.072000	0.000287
-2.066000	0.000287
-2.060000	0.000287
-2.054000	0.000287
-2.048000	0.000287
-2.042000	0.000287
-2.036000	0.000287
-2.030000	0.000287
-2.024000	0.000287
-2.018000	0.000287
-2.012000	0.000288
-2.006000	0.000288
-2.000000	0.000288
-1.994000	0.000287
-1.988000	0.000288
-1.982000	0.000288
-1.976000	0.000288
-1.970000	0.000288
-1.964000	0.000287
-1.958000	0.000288
-1.952000	0.000288
-1.946000	0.000288
-1.940000	0.000288
-1.934000	0.000288
-1.928000	0.000288
-1.922000	0.000288
-1.916000	0.000288
-1.910000	0.000288
-1.904000	0.000288
-1.898000	0.000288
-1.892000	0.000288
-1.886000	0.000288
-1.880000	0.000288
-1.874000	0.000288
-1.868000	0.000288
-1.862000	0.000288
-1.856000	0.000288
-1.850000	0.000288
-1.844000	0.000288
-1.838000	0.000288
-1.832000	0.000288
-1.826000	0.000288
-1.820000	0.000288
-1.814000	0.000288
-1.808000	0.000288
-1.802000	0.000288
-1.796000	0.000288
-1.790000	0.000289
-1.784000	0.000289
-1.778000	0.000288
-1.772000	0.000288
-1.766000	0.000288
-1.760000	0.000289
-1.754000	0.000289
-1.748000	0.000288
-1.742000	0.000289
-1.736000	0.000289
-1.730000	0.000289
-1.724000	0.000289
-1.718000	0.000289
-1.712000	0.000289
-1.706000	0.000289
-1.700000	0.000289
-1.694000	0.000289
-1.688000	0.000289
-1.682000	0.000289
-1.676000	0.000289
-1.670000	0.000289
-1.664000	0.000289
-1.658000	0.000289
-1.652000	0.000289
-1.646000	0.000289
-1.640000	0.000289
-1.634000	0.000289
-1.628000	0.000289
-1.622000	0.000289
-1.616000	0.000289
-1.610000	0.000289
-1.604000	0.000289
-1.598000	0.000289
-1.592000	0.000289
-1.586000	0.000289
-1.580000	0.000289
-1.574000	0.000289
-1.568000	0.000289
-1.562000	0.000289
-1.556000	0.000289
-1.550000	0.000290
-1.544000	0.000290
-1.538000	0.000290
-1.532000	0.000290
-1.526000	0.000290
-1.520000	0.000290
-1.514000	0.000290
-1.507500	0.000290
-1.501500	0.000290
-1.495500	0.000290
-1.489500	0.000290
-1.483500	0.000290
-1.477500	0.000290
-1.471500	0.000290
-1.465500	0.000290
-1.459500	0.000290
-1.453500	0.000290
-1.447500	0.000290
-1.441500	0.000290
-1.435500	0.000290
-1.429500	0.000290
-1.423500	0.000290
-1.417500	0.000290
-1.411500	0.000290
-1.405500	0.000290
-1.399500	0.000290
-1.393500	0.000290
-1.387500	0.000290
-1.381500	0.000290
-1.375500	0.000290
-1.369500	0.000290
-1.363500	0.000290
-1.357500	0.000290
-1.351500	0.000290
-1.345500	0.000290
-1.339500	0.000290
-1.333500	0.000290
-1.327500	0.000290
-1.321500	0.000290
-1.315500	0.000290
-1.309500	0.000290
-1.303500	0.000290
-1.297500	0.000290
-1.291500	0.000290
-1.285500	0.000291
-1.279500	0.000290
-1.273500	0.000291
-1.267500	0.000291
-1.261500	0.000291
-1.255500	0.000291
-1.249500	0.000291
-1.243500	0.000291
-1.237500	0.000291
-1.231500	0.000291
-1.225500	0.000291
-1.219500	0.000291
-1.213500	0.000291
-1.207500	0.000291
-1.201500	0.000291
-1.195500	0.000291
-1.189500	0.000291
-1.183500	0.000291
-1.177500	0.000291
-1.171500	0.000291
-1.165500	0.000291
-1.159500	0.000291
-1.153500	0.000291
-1.147500	0.000291
-1.141500	0.000291
-1.135500	0.000291
-1.129500	0.000291
-1.123500	0.000291
-1.117500	0.000291
-1.111500	0.000291
-1.105500	0.000291
-1.099500	0.000291
-1.093500	0.000291
-1.087500	0.000291
-1.081500	0.000291
-1.075500	0.000291
-1.069500	0.000291
-1.063500	0.000291
-1.057500	0.000292
-1.051500	0.000292
-1.045500	0.000292
-1.039500	0.000291
-1.033500	0.000291
-1.027500	0.000291
-1.021500	0.000291
-1.015500	0.000291
-1.009500	0.000291
-1.003500	0.000291
-0.997500	0.000291
-0.991500	0.000292
-0.985500	0.000292
-0.979500	0.000292
-0.973500	0.000292
-0.967500	0.000292
-0.961500	0.000292
-0.955500	0.000292
-0.949500	0.000292
-0.943500	0.000292
-0.937500	0.000292
-0.931500	0.000292
-0.925500	0.000292
-0.919500	0.000292
-0.913500	0.000292
-0.907500	0.000292
-0.901500	0.000292
-0.895500	0.000292
-0.889500	0.000292
-0.883000	0.000292
-0.877000	0.000292
-0.871000	0.000292
-0.865000	0.000292
-0.859000	0.000292
-0.853000	0.000292
-0.847000	0.000292
-0.841000	0.000292
-0.835000	0.000292
-0.829000	0.000292
-0.823000	0.000292
-0.817000	0.000292
-0.811000	0.000292
-0.805000	0.000292
-0.799000	0.000292
-0.793000	0.000292
-0.787000	0.000292
-0.781000	0.000292
-0.775000	0.000292
-0.769000	0.000292
-0.763000	0.000292
-0.757000	0.000292
-0.751000	0.000292
-0.745000	0.000292
-0.739000	0.000292
-0.733000	0.000292
-0.727000	0.000292
-0.721000	0.000292
-0.715000	0.000292
-0.709000	0.000293
-0.703000	0.000293
-0.697000	0.000292
-0.691000	0.000293
-0.685000	0.000293
-0.679000	0.000293
-0.673000	0.000293
-0.667000	0.000292
-0.661000	0.000292
-0.655000	0.000292
-0.649000	0.000292
-0.643000	0.000293
-0.637000	0.000293
-0.631000	0.000293
-0.625000	0.000293
-0.619000	0.000293
-0.613000	0.000293
-0.607000	0.000293
-0.601000	0.000293
-0.595000	0.000293
-0.589000	0.000293
-0.583000	0.000293
-0.577000	0.000293
-0.571000	0.000293
-0.565000	0.000293
-0.559000	0.000293
-0.553000	0.000293
-0.547000	0.000293
-0.541000	0.000293
-0.535000	0.000293
-0.529000	0.000293
-0.523000	0.000293
-0.517000	0.000293
-0.511000	0.000293
-0.505000	0.000293
-0.499000	0.000293
-0.493000	0.000293
-0.487000	0.000293
-0.481000	0.000293
-0.475000	0.000293
-0.469000	0.000293
-0.463000	0.000293
-0.457000	0.000293
-0.451000	0.000293
-0.445000	0.000293
-0.439000	0.000293
-0.433000	0.000293
-0.427000	0.000293
-0.421000	0.000293
-0.415000	0.000293
-0.409000	0.000293
-0.403000	0.000293
-0.397000	0.000293
-0.391000	0.000293
-0.385000	0.000293
-0.379000	0.000293
-0.373000	0.000293
-0.367000	0.000293
-0.361000	0.000293
-0.355000	0.000293
-0.349000	0.000293
-0.343000	0.000293
-0.337000	0.000293
-0.331000	0.000294
-0.325000	0.000293
-0.319000	0.000293
-0.313000	0.000294
-0.307000	0.000294
-0.301000	0.000294
-0.295000	0.000293
-0.289000	0.000293
-0.283000	0.000293
-0.277000	0.000294
-0.271000	0.000293
-0.265000	0.000293
-0.258500	0.000293
-0.252500	0.000294
-0.246500	0.000294
-0.240500	0.000294
-0.234500	0.000294
-0.228500	0.000294
-0.222500	0.000294
-0.216500	0.000294
-0.210500	0.000294
-0.204500	0.000294
-0.198500	0.000294
-0.192500	0.000294
-0.186500	0.000294
-0.180500	0.000294
-0.174500	0.000294
-0.168500	0.000294
-0.162500	0.000294
-0.156500	0.000294
-0.150500	0.000294
-0.144500	0.000294
-0.138500	0.000294
-0.132500	0.000294
-0.126500	0.000294
-0.120500	0.000294
-0.114500	0.000294
-0.108500	0.000294
-0.102500	0.000294
-0.096500	0.000294
-0.090500	0.000294
-0.084500	0.000294
-0.078500	0.000294
-0.072500	0.000294
-0.066500	0.000294
-0.060500	0.000294
-0.054500	0.000294
-0.048500	0.000294
-0.042500	0.000294
-0.036500	0.000294
-0.030500	0.000294
-0.024500	0.000294
-0.018500	0.000294
-0.012500	0.000294
-0.006500	0.000294
-0.000500	0.000294
