% Langmuir characteristic curve

% U (Volt)	I (A)
65.000000	-2.514571E-7
65.004997	-3.952300E-7
65.010002	-2.471497E-7
65.019997	-3.317837E-7
65.025002	-1.668232E-7
65.029999	-3.740424E-7
65.035004	-4.121102E-7
65.040001	-6.235205E-7
65.050003	-6.405171E-7
65.055000	-4.797475E-7
65.059998	-3.149034E-7
65.065002	-4.079193E-7
65.070000	-3.698515E-7
65.080002	-4.121102E-7
65.084999	-4.459871E-7
65.089996	-3.486639E-7
65.095001	-2.260786E-7
65.099998	-2.302695E-7
65.110001	-2.302695E-7
65.114998	-3.867317E-7
65.120003	-3.910391E-7
65.125000	-4.628673E-7
65.129997	-4.416797E-7
65.139999	-4.206086E-7
65.144997	-5.221227E-7
65.150002	-5.390029E-7
65.154999	-5.897600E-7
65.160004	-2.217712E-7
65.169998	-3.317837E-7
65.175003	-2.979068E-7
65.180000	-2.937159E-7
65.184998	-3.317837E-7
65.190002	-3.529713E-7
65.199997	-3.571622E-7
65.205002	-4.882459E-7
65.209999	-4.206086E-7
65.214996	-4.416797E-7
65.220001	-2.979068E-7
65.230003	-5.094334E-7
65.235001	-6.151386E-7
65.239998	-4.206086E-7
65.245003	-4.206086E-7
65.250000	-3.994210E-7
65.260002	-4.289905E-7
65.264999	-2.768356E-7
65.269997	-2.471497E-7
65.275002	-2.852175E-7
65.279999	-4.247995E-7
65.290001	-2.725283E-7
65.294998	-2.979068E-7
65.300003	-3.656605E-7
65.305000	-3.486639E-7
65.309998	-4.374888E-7
65.320000	-5.094334E-7
65.324997	-4.882459E-7
65.330002	-4.206086E-7
65.334999	-6.108312E-7
65.339996	-3.698515E-7
65.349998	-3.190944E-7
65.355003	-3.064051E-7
65.360001	-3.064051E-7
65.364998	-3.486639E-7
65.370003	-2.598390E-7
65.379997	-2.683373E-7
65.385002	-3.529713E-7
65.389999	-1.965091E-7
65.394997	-4.501780E-7
65.400002	-6.278278E-7
65.410004	-4.882459E-7
65.415001	-5.051261E-7
65.419998	-5.812617E-7
65.425003	-5.390029E-7
65.430000	-5.475013E-7
65.440002	-3.613532E-7
65.445000	-3.022142E-7
65.449997	-4.332978E-7
65.455002	-1.160661E-7
65.459999	-2.598390E-7
65.470001	-2.344605E-7
65.474998	-2.937159E-7
65.480003	-4.628673E-7
65.485001	-3.486639E-7
65.489998	-4.459871E-7
65.500000	-5.094334E-7
65.504997	-3.064051E-7
65.510002	-4.332978E-7
65.514999	-4.121102E-7
65.519997	-2.556480E-7
65.529999	-3.275927E-7
65.535004	-3.190944E-7
65.540001	-2.810266E-7
65.544998	-2.514571E-7
65.550003	-3.867317E-7
65.559998	-2.175802E-7
65.565002	-2.852175E-7
65.570000	-3.444729E-7
65.574997	-2.175802E-7
65.580002	-6.024493E-7
65.589996	-6.108312E-7
65.595001	-6.151386E-7
65.599998	-4.755566E-7
65.605003	-4.882459E-7
65.610001	-4.289905E-7
65.620003	-3.190944E-7
65.625000	-3.190944E-7
65.629997	-3.444729E-7
65.635002	-1.160661E-7
65.639999	-3.105961E-7
65.650002	-3.022142E-7
65.654999	-3.444729E-7
65.660004	-3.613532E-7
65.665001	-3.571622E-7
65.669998	-4.037283E-7
65.680000	-5.009351E-7
65.684998	-3.613532E-7
65.690002	-4.079193E-7
65.695000	-4.840549E-7
65.705002	-3.994210E-7
65.709999	-3.698515E-7
65.714996	-3.825407E-7
65.720001	-2.429588E-7
65.724998	-3.740424E-7
65.735001	-2.514571E-7
65.739998	-3.867317E-7
65.745003	-3.486639E-7
65.750000	-3.359746E-7
65.754997	-4.163012E-7
65.764999	-3.825407E-7
65.769997	-4.628673E-7
65.775002	-4.289905E-7
65.779999	-4.289905E-7
65.785004	-6.024493E-7
65.794998	-2.598390E-7
65.800003	-4.501780E-7
65.805000	-4.924368E-7
65.809998	-3.359746E-7
65.815002	-3.994210E-7
65.824997	-1.838198E-7
65.830002	-3.275927E-7
65.834999	-4.079193E-7
65.839996	-3.402820E-7
65.845001	-5.094334E-7
65.855003	-3.952300E-7
65.860001	-5.009351E-7
65.864998	-4.882459E-7
65.870003	-6.066402E-7
65.875000	-4.670583E-7
65.885002	-4.037283E-7
65.889999	-5.812617E-7
65.894997	-2.091983E-7
65.900002	-3.571622E-7
65.904999	-3.190944E-7
65.915001	-3.317837E-7
65.919998	-3.656605E-7
65.925003	-3.825407E-7
65.930000	-4.628673E-7
65.934998	-4.289905E-7
65.945000	-3.952300E-7
65.949997	-4.247995E-7
65.955002	-2.979068E-7
65.959999	-4.247995E-7
65.964996	-4.924368E-7
65.974998	-4.459871E-7
65.980003	-3.910391E-7
65.985001	-2.387678E-7
65.989998	-3.359746E-7
65.995003	-2.387678E-7
66.004997	-4.037283E-7
66.010002	-2.852175E-7
66.014999	-2.979068E-7
66.019997	-1.160661E-7
66.025002	-3.149034E-7
66.035004	-3.317837E-7
66.040001	-5.558832E-7
66.044998	-6.488990E-7
66.050003	-4.416797E-7
66.055000	-3.994210E-7
66.065002	-5.939510E-7
66.070000	-2.387678E-7
66.074997	-4.713656E-7
66.080002	-3.529713E-7
66.084999	-1.203734E-7
66.095001	-2.260786E-7
66.099998	-2.852175E-7
66.105003	-2.725283E-7
66.110001	-3.698515E-7
66.114998	-3.910391E-7
66.125000	-3.317837E-7
66.129997	-3.825407E-7
66.135002	-4.121102E-7
66.139999	-6.193295E-7
66.144997	-6.700866E-7
66.154999	-2.852175E-7
66.160004	-5.855691E-7
66.165001	-5.094334E-7
66.169998	-3.275927E-7
66.175003	-2.768356E-7
66.184998	-3.402820E-7
66.190002	-2.302695E-7
66.195000	-1.160661E-7
66.199997	-1.160661E-7
66.205002	-2.556480E-7
66.214996	-2.598390E-7
66.220001	-5.136244E-7
66.224998	-5.475013E-7
66.230003	-5.051261E-7
66.235001	-4.247995E-7
66.245003	-3.825407E-7
66.250000	-4.459871E-7
66.254997	-3.105961E-7
66.260002	-4.882459E-7
66.264999	-3.317837E-7
66.275002	-2.810266E-7
66.279999	-2.175802E-7
66.285004	-4.121102E-7
66.290001	-3.275927E-7
66.294998	-4.332978E-7
66.305000	-3.571622E-7
66.309998	-4.247995E-7
66.315002	-3.910391E-7
66.320000	-5.770708E-7
66.324997	-2.895249E-7
66.334999	-4.416797E-7
66.339996	-5.009351E-7
66.345001	-3.444729E-7
66.349998	-3.910391E-7
66.355003	-4.374888E-7
66.364998	-2.091983E-7
66.370003	-2.979068E-7
66.375000	-1.033768E-7
66.379997	-6.066402E-7
66.385002	-3.190944E-7
66.394997	-2.937159E-7
66.400002	-4.374888E-7
66.404999	-4.247995E-7
66.410004	-5.051261E-7
66.415001	-5.982583E-7
66.425003	-2.895249E-7
66.430000	-4.543690E-7
66.434998	-3.994210E-7
66.440002	-3.486639E-7
66.445000	-2.387678E-7
66.455002	-3.022142E-7
66.459999	-2.007000E-7
66.464996	-2.217712E-7
66.470001	-2.217712E-7
66.474998	-4.037283E-7
66.485001	-4.416797E-7
66.489998	-3.613532E-7
66.495003	-4.713656E-7
66.500000	-4.079193E-7
66.504997	-3.275927E-7
66.514999	-4.586764E-7
66.519997	-5.770708E-7
66.525002	-5.770708E-7
66.529999	-2.641464E-7
66.535004	-3.444729E-7
66.544998	-2.260786E-7
66.550003	-2.598390E-7
66.555000	-8.230563E-8
66.559998	-2.768356E-7
66.565002	-3.317837E-7
66.574997	-3.444729E-7
66.580002	-3.529713E-7
66.584999	-3.825407E-7
66.589996	-3.105961E-7
66.595001	-5.770708E-7
66.605003	-3.994210E-7
66.610001	-4.332978E-7
66.614998	-3.910391E-7
66.620003	-2.852175E-7
66.625000	-3.994210E-7
66.635002	-2.895249E-7
66.639999	-3.402820E-7
66.644997	-1.203734E-7
66.650002	-2.810266E-7
66.654999	-2.598390E-7
66.665001	-3.994210E-7
66.669998	-2.937159E-7
66.675003	-4.121102E-7
66.680000	-4.374888E-7
66.684998	-4.797475E-7
66.695000	-3.910391E-7
66.699997	-3.190944E-7
66.705002	-2.387678E-7
66.709999	-3.149034E-7
66.714996	-2.387678E-7
66.724998	-3.275927E-7
66.730003	-6.530900E-8
66.735001	-2.895249E-7
66.739998	-2.133893E-7
66.745003	-2.260786E-7
66.754997	-4.163012E-7
66.760002	-3.486639E-7
66.764999	-4.121102E-7
66.769997	-5.939510E-7
66.775002	-4.628673E-7
66.785004	-4.501780E-7
66.790001	-5.897600E-7
66.794998	-5.431939E-7
66.800003	-3.571622E-7
66.805000	-3.656605E-7
66.815002	-3.444729E-7
66.820000	-3.149034E-7
66.824997	-2.598390E-7
66.830002	-1.795124E-7
66.834999	-3.910391E-7
66.845001	-3.402820E-7
66.849998	-4.206086E-7
66.855003	-5.770708E-7
66.860001	-5.601905E-7
66.864998	-4.037283E-7
66.875000	-5.516922E-7
66.879997	-4.755566E-7
66.885002	-4.501780E-7
66.889999	-2.937159E-7
66.894997	-4.374888E-7
66.904999	-2.768356E-7
66.910004	-2.895249E-7
66.915001	-2.217712E-7
66.919998	-3.105961E-7
66.925003	-3.402820E-7
66.934998	-5.009351E-7
66.940002	-3.486639E-7
66.945000	-4.416797E-7
66.949997	-4.797475E-7
66.955002	-3.402820E-7
66.964996	-4.332978E-7
66.970001	-5.009351E-7
66.974998	-4.079193E-7
66.980003	-4.586764E-7
66.985001	-2.937159E-7
66.995003	-2.683373E-7
67.000000	-3.783498E-7
67.004997	-3.867317E-7
67.010002	-3.571622E-7
67.014999	-3.149034E-7
67.025002	-3.275927E-7
67.029999	-2.979068E-7
67.035004	-4.374888E-7
67.040001	-4.670583E-7
67.044998	-3.232853E-7
67.055000	-4.543690E-7
67.059998	-4.121102E-7
67.065002	-3.740424E-7
67.070000	-3.698515E-7
67.080002	-3.910391E-7
67.084999	-2.810266E-7
67.089996	-1.795124E-7
67.095001	-3.317837E-7
67.099998	-3.190944E-7
67.110001	-2.725283E-7
67.114998	-3.402820E-7
67.120003	-3.022142E-7
67.125000	-5.136244E-7
67.129997	-3.867317E-7
67.139999	-4.079193E-7
67.144997	-5.558832E-7
67.150002	-2.514571E-7
67.154999	-5.136244E-7
67.160004	-1.922017E-7
67.169998	-1.584413E-7
67.175003	-4.713656E-7
67.180000	-3.022142E-7
67.184998	-3.571622E-7
67.190002	-2.514571E-7
67.199997	-2.768356E-7
67.205002	-4.289905E-7
67.209999	-3.783498E-7
67.214996	-3.613532E-7
67.220001	-5.982583E-7
67.230003	-5.136244E-7
67.235001	-4.501780E-7
67.239998	-4.882459E-7
67.245003	-4.121102E-7
67.250000	-3.486639E-7
67.260002	-3.275927E-7
67.264999	-1.118751E-7
67.269997	-4.121102E-7
67.275002	-2.641464E-7
67.279999	-2.641464E-7
67.290001	-2.725283E-7
67.294998	-3.317837E-7
67.300003	-4.586764E-7
67.305000	-3.190944E-7
67.309998	-3.867317E-7
67.320000	-4.840549E-7
67.324997	-3.317837E-7
67.330002	-2.598390E-7
67.334999	-6.066402E-7
67.339996	-3.740424E-7
67.349998	-3.317837E-7
67.355003	-2.895249E-7
67.360001	-2.598390E-7
67.364998	-2.387678E-7
67.370003	-2.091983E-7
67.379997	-6.530900E-8
67.385002	-3.994210E-7
67.389999	-2.895249E-7
67.394997	-3.022142E-7
67.400002	-4.840549E-7
67.410004	-4.628673E-7
67.415001	-4.501780E-7
67.419998	-5.770708E-7
67.425003	-5.939510E-7
67.430000	-3.317837E-7
67.440002	-6.447081E-7
67.445000	-1.033768E-7
67.449997	-2.260786E-7
67.455002	-3.698515E-7
67.459999	-2.175802E-7
67.470001	-3.910391E-7
67.474998	-2.133893E-7
67.480003	-4.882459E-7
67.485001	-2.768356E-7
67.489998	-6.488990E-7
67.500000	-5.348120E-7
67.504997	-4.628673E-7
67.510002	-2.598390E-7
67.514999	-5.685724E-7
67.519997	-4.501780E-7
67.529999	-4.079193E-7
67.535004	-3.529713E-7
67.540001	-2.514571E-7
67.544998	-3.444729E-7
67.550003	-3.698515E-7
67.559998	-4.842877E-8
67.565002	-2.852175E-7
67.570000	-2.979068E-7
67.574997	-3.359746E-7
67.580002	-4.374888E-7
67.589996	-4.586764E-7
67.595001	-5.516922E-7
67.599998	-4.840549E-7
67.605003	-4.967442E-7
67.610001	-4.967442E-7
67.620003	-2.641464E-7
67.625000	-4.501780E-7
67.629997	-1.838198E-7
67.635002	-4.037283E-7
67.639999	-2.429588E-7
67.650002	-3.613532E-7
67.654999	-4.079193E-7
67.660004	-4.206086E-7
67.665001	-3.317837E-7
67.669998	-3.656605E-7
67.680000	-3.867317E-7
67.684998	-2.641464E-7
67.690002	-4.163012E-7
67.695000	-4.924368E-7
67.699997	-4.713656E-7
67.709999	-4.628673E-7
67.714996	-3.571622E-7
67.720001	-2.895249E-7
67.724998	-2.598390E-7
67.730003	-2.007000E-7
67.739998	-3.613532E-7
67.745003	-2.260786E-7
67.750000	-1.160661E-7
67.754997	-3.444729E-7
67.760002	-3.740424E-7
67.769997	-5.475013E-7
67.775002	-4.416797E-7
67.779999	-4.374888E-7
67.785004	-3.994210E-7
67.790001	-3.613532E-7
67.800003	-3.529713E-7
67.805000	-6.488990E-7
67.809998	-4.289905E-7
67.815002	-2.175802E-7
67.820000	-1.922017E-7
67.830002	-1.922017E-7
67.834999	-5.475013E-7
67.839996	-3.149034E-7
67.845001	-3.486639E-7
67.849998	-4.289905E-7
67.860001	-3.994210E-7
67.864998	-4.586764E-7
67.870003	-4.670583E-7
67.875000	-3.910391E-7
67.879997	-5.221227E-7
67.889999	-2.641464E-7
67.894997	-2.598390E-7
67.900002	-2.133893E-7
67.904999	-2.217712E-7
67.910004	-2.007000E-7
67.919998	-1.838198E-7
67.925003	-7.799827E-8
67.930000	-2.175802E-7
67.934998	-2.641464E-7
67.940002	-3.656605E-7
67.949997	-3.783498E-7
67.955002	-4.628673E-7
67.959999	-5.812617E-7
67.964996	-3.994210E-7
67.970001	-3.486639E-7
67.980003	-2.979068E-7
67.985001	-2.725283E-7
67.989998	-3.698515E-7
67.995003	-3.359746E-7
68.000000	-2.007000E-7
68.010002	-2.725283E-7
68.014999	-1.880107E-7
68.019997	-2.302695E-7
68.025002	-2.641464E-7
68.029999	-2.852175E-7
68.040001	-5.263137E-7
68.044998	-6.108312E-7
68.050003	-4.543690E-7
68.055000	-4.797475E-7
68.059998	-5.812617E-7
68.070000	-1.668232E-7
68.074997	-3.317837E-7
68.080002	-2.514571E-7
68.084999	-2.133893E-7
68.089996	-1.838198E-7
68.099998	-2.725283E-7
68.105003	-2.302695E-7
68.110001	-2.641464E-7
68.114998	-3.656605E-7
68.120003	-3.825407E-7
68.129997	-5.558832E-7
68.135002	-5.305046E-7
68.139999	-5.982583E-7
68.144997	-6.024493E-7
68.150002	-5.939510E-7
68.160004	-3.149034E-7
68.165001	-1.541339E-7
68.169998	-2.768356E-7
68.175003	-4.163012E-7
68.180000	-4.713656E-7
68.190002	-2.683373E-7
68.195000	-2.260786E-7
68.199997	-2.810266E-7
68.205002	-4.163012E-7
68.209999	-3.613532E-7
68.220001	-3.952300E-7
68.224998	-5.812617E-7
68.230003	-4.374888E-7
68.235001	-3.867317E-7
68.239998	-5.728798E-7
68.250000	-1.965091E-7
68.254997	-4.121102E-7
68.260002	-2.937159E-7
68.264999	-2.471497E-7
68.269997	-2.302695E-7
68.279999	-3.993046E-8
68.285004	-2.598390E-7
68.290001	-1.838198E-7
68.294998	-3.910391E-7
68.300003	-3.402820E-7
68.309998	-5.475013E-7
68.315002	-3.825407E-7
68.320000	-5.348120E-7
68.324997	-3.698515E-7
68.330002	-4.628673E-7
68.339996	-5.178154E-7
68.345001	-4.374888E-7
68.349998	-4.797475E-7
68.355003	-3.149034E-7
68.360001	-2.048910E-7
68.370003	-2.007000E-7
68.375000	-2.641464E-7
68.379997	-2.133893E-7
68.385002	-1.033768E-7
68.389999	-2.556480E-7
68.400002	-4.967442E-7
68.404999	-4.247995E-7
68.410004	-2.429588E-7
68.415001	-3.656605E-7
68.419998	-5.263137E-7
68.430000	-3.359746E-7
68.434998	-3.275927E-7
68.440002	-2.725283E-7
68.445000	-3.022142E-7
68.449997	-1.838198E-7
68.459999	-3.317837E-7
68.464996	-3.232853E-7
68.470001	-1.584413E-7
68.474998	-8.230563E-8
68.485001	-2.683373E-7
68.489998	-3.317837E-7
68.495003	-2.302695E-7
68.500000	-4.079193E-7
68.504997	-4.501780E-7
68.514999	-3.232853E-7
68.519997	-3.656605E-7
68.525002	-5.601905E-7
68.529999	-3.232853E-7
68.535004	-2.852175E-7
68.544998	-1.753215E-7
68.550003	-3.232853E-7
68.555000	-1.245644E-7
68.559998	-2.302695E-7
68.565002	-6.961636E-8
68.574997	-2.895249E-7
68.580002	-3.064051E-7
68.584999	-4.459871E-7
68.589996	-3.698515E-7
68.595001	-3.529713E-7
68.605003	-3.994210E-7
68.610001	-3.359746E-7
68.614998	-4.543690E-7
68.620003	-2.768356E-7
68.625000	-2.683373E-7
68.635002	-3.402820E-7
68.639999	-1.668232E-7
68.644997	-2.725283E-7
68.650002	-2.598390E-7
68.654999	-1.287553E-7
68.665001	-6.530900E-8
68.669998	-3.359746E-7
68.675003	-2.937159E-7
68.680000	-4.206086E-7
68.684998	-2.387678E-7
68.695000	-3.275927E-7
68.699997	-4.882459E-7
68.705002	-2.683373E-7
68.709999	-2.387678E-7
68.714996	-2.683373E-7
68.724998	-2.007000E-7
68.730003	2.339948E-8
68.735001	-1.965091E-7
68.739998	-1.118751E-7
68.745003	-3.571622E-7
68.754997	-2.091983E-7
68.760002	-2.725283E-7
68.764999	-2.556480E-7
68.769997	-3.740424E-7
68.775002	-3.486639E-7
68.785004	-3.359746E-7
68.790001	-2.937159E-7
68.794998	-1.330627E-7
68.800003	-2.725283E-7
68.805000	-2.979068E-7
68.815002	-9.918585E-8
68.820000	-1.753215E-7
68.824997	-1.922017E-7
68.830002	-8.230563E-8
68.834999	-1.076842E-7
68.845001	-1.466833E-8
68.849998	-2.260786E-7
68.855003	-3.149034E-7
68.860001	-3.656605E-7
68.864998	-3.190944E-7
68.875000	-3.149034E-7
68.879997	-3.064051E-7
68.885002	-2.556480E-7
68.889999	-1.372537E-7
68.894997	-1.711305E-7
68.904999	-3.105961E-7
68.910004	-1.033768E-7
68.915001	-1.118751E-7
68.919998	-8.230563E-8
68.925003	4.458707E-8
68.934998	-2.387678E-7
68.940002	-2.725283E-7
68.945000	-2.302695E-7
68.949997	-2.725283E-7
68.955002	-3.232853E-7
68.964996	-2.514571E-7
68.970001	-1.160661E-7
68.974998	-2.937159E-7
68.980003	-2.260786E-7
68.985001	-2.387678E-7
68.995003	-3.022142E-7
69.000000	-2.514571E-7
69.004997	-2.007000E-7
69.010002	-6.530900E-8
69.014999	-2.556480E-7
69.025002	-2.556480E-7
69.029999	-1.711305E-7
69.035004	-4.713656E-7
69.040001	-1.118751E-7
69.044998	-2.217712E-7
69.055000	-3.317837E-7
69.059998	-4.037283E-7
69.065002	-1.118751E-7
69.070000	-3.022142E-7
69.074997	-1.795124E-7
69.084999	9.953510E-8
69.089996	-6.961636E-8
69.095001	-1.541339E-7
69.099998	-6.170012E-9
69.105003	2.339948E-8
69.114998	-6.111804E-8
69.120003	-1.160661E-7
69.125000	-1.753215E-7
69.129997	-1.880107E-7
69.135002	-2.937159E-7
69.144997	-1.838198E-7
69.150002	-4.423782E-8
69.154999	-2.514571E-7
69.160004	-1.922017E-7
69.165001	-1.372537E-7
69.175003	-4.842877E-8
69.180000	-4.842877E-8
69.184998	-1.036096E-8
69.190002	1.071021E-8
69.195000	1.756707E-7
69.205002	-8.649658E-8
69.209999	-1.753215E-7
69.214996	-6.530900E-8
69.220001	-2.302695E-7
69.224998	-1.118751E-7
69.235001	-1.626322E-7
69.239998	-1.033768E-7
69.245003	-7.799827E-8
69.250000	-1.033768E-7
69.254997	-1.203734E-7
69.264999	2.328306E-9
69.269997	6.577466E-8
69.275002	-3.573950E-8
69.279999	4.877802E-8
69.285004	3.608875E-8
69.294998	9.115320E-8
69.300003	-9.499490E-8
69.305000	6.146729E-8
69.309998	-1.979060E-9
69.315002	-6.111804E-8
69.324997	9.534415E-8
69.330002	-3.993046E-8
69.334999	-6.530900E-8
69.339996	-6.530900E-8
69.345001	1.501758E-8
69.355003	4.877802E-8
69.360001	-8.230563E-8
69.364998	1.671724E-7
69.370003	3.067544E-7
69.375000	2.339948E-8
69.385002	2.010493E-7
69.389999	7.415656E-8
69.394997	-4.842877E-8
69.400002	-1.466833E-8
69.404999	-2.048910E-7
69.415001	1.071021E-8
69.419998	6.996561E-8
69.425003	1.501758E-8
69.430000	1.376029E-7
69.434998	7.415656E-8
69.445000	9.115320E-8
69.449997	1.461012E-7
69.455002	1.756707E-7
69.459999	3.025634E-7
69.464996	3.194436E-7
69.474998	2.433080E-7
69.480003	2.559973E-7
69.485001	2.052402E-7
69.489998	3.067544E-7
69.495003	1.587905E-7
69.504997	1.249136E-7
69.510002	1.249136E-7
69.514999	2.982561E-7
69.519997	1.376029E-7
69.525002	2.518063E-7
69.535004	2.813758E-7
69.540001	3.702007E-7
69.544998	4.251488E-7
69.550003	5.774200E-7
69.555000	4.166504E-7
69.565002	4.759058E-7
69.570000	5.731126E-7
69.574997	2.179295E-7
69.580002	4.970934E-7
69.584999	3.109453E-7
69.595001	3.406312E-7
69.599998	3.152527E-7
69.605003	2.855668E-7
69.610001	3.490131E-7
69.614998	3.236346E-7
69.625000	4.970934E-7
69.629997	5.223555E-7
69.635002	5.181646E-7
69.639999	5.520415E-7
69.644997	5.816109E-7
69.654999	5.731126E-7
69.660004	5.774200E-7
69.665001	3.912719E-7
69.669998	5.139736E-7
69.675003	4.632166E-7
69.684998	5.097827E-7
69.690002	4.717149E-7
69.695000	4.844042E-7
69.699997	4.505273E-7
69.705002	5.774200E-7
69.714996	6.069895E-7
69.720001	4.717149E-7
69.724998	7.253839E-7
69.730003	6.154878E-7
69.735001	6.661285E-7
69.745003	7.676426E-7
69.750000	7.338822E-7
69.754997	8.225907E-7
69.760002	7.676426E-7
69.764999	6.788177E-7
69.775002	9.030337E-7
69.779999	7.422641E-7
69.785004	8.733477E-7
69.790001	7.338822E-7
69.794998	6.915070E-7
69.805000	9.156065E-7
69.809998	9.494834E-7
69.815002	1.004431E-6
69.820000	8.860370E-7
69.824997	8.099014E-7
69.834999	9.536743E-7
69.839996	1.275097E-6
69.845001	9.072246E-7
69.849998	1.072069E-6
69.860001	9.875512E-7
69.864998	9.790529E-7
69.870003	9.621726E-7
69.875000	1.012930E-6
69.879997	1.004431E-6
69.889999	1.173583E-6
69.894997	1.144013E-6
69.900002	1.131324E-6
69.904999	1.207460E-6
69.910004	1.296285E-6
69.919998	1.465320E-6
69.925003	1.313165E-6
69.930000	1.452630E-6
69.934998	1.414679E-6
69.940002	1.503387E-6
69.949997	1.566834E-6
69.955002	1.300476E-6
69.959999	1.342734E-6
69.964996	1.495006E-6
69.970001	1.321547E-6
69.980003	1.731794E-6
69.985001	1.473818E-6
69.989998	1.566834E-6
69.995003	1.571025E-6
70.000000	1.723296E-6
70.010002	1.829001E-6
70.014999	1.854380E-6
70.019997	1.888257E-6
70.025002	1.871260E-6
70.029999	1.748675E-6
70.040001	1.845881E-6
70.044998	1.964276E-6
70.050003	1.837499E-6
70.055000	1.795241E-6
70.059998	1.993962E-6
70.070000	2.116547E-6
70.074997	2.057408E-6
70.080002	1.998153E-6
70.084999	2.311077E-6
70.089996	2.370216E-6
70.099998	2.391404E-6
70.105003	2.476037E-6
70.110001	2.226443E-6
70.114998	2.306886E-6
70.120003	2.653571E-6
70.129997	2.497109E-6
70.135002	2.311077E-6
70.139999	2.446352E-6
70.144997	2.560555E-6
70.150002	2.564746E-6
70.160004	2.700137E-6
70.165001	2.776156E-6
70.169998	3.017252E-6
70.175003	2.869288E-6
70.180000	3.042631E-6
70.190002	3.055320E-6
70.195000	2.983375E-6
70.199997	3.220164E-6
70.205002	3.144029E-6
70.209999	3.177905E-6
70.220001	3.452762E-6
70.224998	3.275112E-6
70.230003	3.194786E-6
70.235001	3.165216E-6
70.239998	3.355555E-6
70.250000	3.435882E-6
70.254997	3.478141E-6
70.260002	3.588037E-6
70.264999	3.714929E-6
70.269997	3.960216E-6
70.279999	3.744499E-6
70.285004	3.960216E-6
70.290001	4.201196E-6
70.294998	4.150439E-6
70.300003	3.913650E-6
70.309998	4.361849E-6
70.315002	4.205387E-6
70.320000	4.065922E-6
70.324997	4.239264E-6
70.330002	4.290021E-6
70.339996	4.607136E-6
70.345001	4.336471E-6
70.349998	4.641013E-6
70.355003	4.734029E-6
70.360001	4.784786E-6
70.370003	4.996196E-6
70.375000	5.085021E-6
70.379997	5.148351E-6
70.385002	5.139969E-6
70.389999	5.097711E-6
70.400002	5.431706E-6
70.404999	5.216105E-6
70.410004	5.389447E-6
70.415001	5.385140E-6
70.419998	5.410518E-6
70.430000	5.719252E-6
70.434998	5.583977E-6
70.440002	5.808077E-6
70.445000	6.150571E-6
70.449997	6.099814E-6
70.459999	6.230897E-6
70.464996	6.243587E-6
70.470001	6.446498E-6
70.474998	6.471877E-6
70.480003	6.598770E-6
70.489998	6.695976E-6
70.495003	6.619957E-6
70.500000	6.776419E-6
70.504997	6.869435E-6
70.510002	6.801798E-6
70.519997	7.013208E-6
70.525002	7.241499E-6
70.529999	7.279566E-6
70.535004	7.414841E-6
70.540001	7.694005E-6
70.550003	7.622060E-6
70.555000	7.816590E-6
70.559998	8.006813E-6
70.565002	8.091447E-6
70.570000	8.231029E-6
70.580002	8.615782E-6
70.584999	8.526957E-6
70.589996	8.505885E-6
70.595001	8.577714E-6
70.599998	8.801813E-6
70.610001	9.000534E-6
70.614998	9.055482E-6
70.620003	9.068171E-6
70.625000	9.541865E-6
70.629997	9.414973E-6
70.639999	9.753276E-6
70.644997	9.867363E-6
70.650002	9.960495E-6
70.654999	1.007458E-5
70.660004	1.028180E-5
70.669998	1.045095E-5
70.675003	1.057354E-5
70.680000	1.076388E-5
70.684998	1.074700E-5
70.690002	1.110637E-5
70.699997	1.131359E-5
70.705002	1.113594E-5
70.709999	1.155876E-5
70.714996	1.154188E-5
70.720001	1.163490E-5
70.730003	1.212547E-5
70.735001	1.232000E-5
70.739998	1.264550E-5
70.745003	1.259905E-5
70.750000	1.276389E-5
70.760002	1.289928E-5
70.764999	1.310650E-5
70.769997	1.316145E-5
70.775002	1.335598E-5
70.779999	1.354201E-5
70.790001	1.381256E-5
70.794998	1.382525E-5
70.800003	1.413398E-5
70.805000	1.445110E-5
70.809998	1.448498E-5
70.820000	1.485285E-5
70.824997	1.520803E-5
70.830002	1.532643E-5
70.834999	1.536449E-5
70.839996	1.557171E-5
70.849998	1.618906E-5
70.855003	1.598184E-5
70.860001	1.639617E-5
70.864998	1.644692E-5
70.870003	1.658651E-5
70.879997	1.697976E-5
70.885002	1.718698E-5
70.889999	1.738570E-5
70.894997	1.763937E-5
70.900002	1.780014E-5
70.910004	1.823984E-5
70.915001	1.848093E-5
70.919998	1.856126E-5
70.925003	1.895020E-5
70.930000	1.904322E-5
70.940002	1.939852E-5
70.945000	1.960143E-5
70.949997	1.978746E-5
70.955002	2.001156E-5
70.959999	2.016802E-5
70.970001	2.074311E-5
70.974998	2.101797E-5
70.980003	2.136896E-5
70.985001	2.143241E-5
70.989998	2.169027E-5
71.000000	2.200319E-5
71.004997	2.254022E-5
71.010002	2.308155E-5
71.014999	2.298004E-5
71.019997	2.332253E-5
71.029999	2.383837E-5
71.035004	2.404139E-5
71.040001	2.430775E-5
71.044998	2.444303E-5
71.050003	2.454454E-5
71.059998	2.531416E-5
71.065002	2.538599E-5
71.070000	2.563128E-5
71.074997	2.600334E-5
71.080002	2.650660E-5
71.089996	2.681953E-5
71.095001	2.736924E-5
71.099998	2.770743E-5
71.105003	2.787658E-5
71.110001	2.815994E-5
71.120003	2.880266E-5
71.125000	2.908602E-5
71.129997	2.930162E-5
71.135002	2.980907E-5
71.139999	2.995704E-5
71.150002	3.046449E-5
71.154999	3.088731E-5
71.160004	3.095495E-5
71.165001	3.128906E-5
71.169998	3.169500E-5
71.180000	3.237999E-5
71.184998	3.276055E-5
71.190002	3.315380E-5
71.195000	3.344554E-5
71.199997	3.380922E-5
71.209999	3.448152E-5
71.214996	3.469724E-5
71.220001	3.520038E-5
71.224998	3.525964E-5
71.235001	3.610109E-5
71.239998	3.661693E-5
71.245003	3.704405E-5
71.250000	3.741612E-5
71.254997	3.753870E-5
71.264999	3.822800E-5
71.269997	3.878621E-5
71.275002	3.925548E-5
71.279999	3.942044E-5
71.285004	4.004198E-5
71.294998	4.045223E-5
71.300003	4.123873E-5
71.305000	4.174607E-5
71.309998	4.219438E-5
71.315002	4.279905E-5
71.324997	4.324724E-5
71.330002	4.352210E-5
71.334999	4.420709E-5
71.339996	4.468916E-5
71.345001	4.493445E-5
71.355003	4.586042E-5
71.360001	4.608452E-5
71.364998	4.693028E-5
71.370003	4.735740E-5
71.375000	4.783098E-5
71.385002	4.858361E-5
71.389999	4.904449E-5
71.394997	4.981831E-5
71.400002	5.019887E-5
71.404999	5.063869E-5
71.415001	5.190726E-5
71.419998	5.209749E-5
71.425003	5.263032E-5
71.430000	5.302776E-5
71.434998	5.353522E-5
71.445000	5.456700E-5
71.449997	5.486712E-5
71.455002	5.576364E-5
71.459999	5.592848E-5
71.464996	5.669810E-5
71.474998	5.776365E-5
71.480003	5.821616E-5
71.485001	5.862210E-5
71.489998	5.930290E-5
71.495003	6.031350E-5
71.504997	6.142980E-5
71.510002	6.137486E-5
71.514999	6.205984E-5
71.519997	6.257580E-5
71.525002	6.358209E-5
71.535004	6.432633E-5
71.540001	6.484648E-5
71.544998	6.552297E-5
71.550003	6.612344E-5
71.555000	6.687618E-5
71.565002	6.815733E-5
71.570000	6.856758E-5
71.574997	6.912148E-5
71.580002	6.964582E-5
71.584999	7.046608E-5
71.595001	7.191650E-5
71.599998	7.284677E-5
71.605003	7.321045E-5
71.610001	7.408147E-5
71.614998	7.458893E-5
71.625000	7.562072E-5
71.629997	7.671583E-5
71.635002	7.721060E-5
71.639999	7.782795E-5
71.644997	7.870328E-5
71.654999	7.980689E-5
71.660004	8.097396E-5
71.665001	8.104159E-5
71.669998	8.231436E-5
71.675003	8.289376E-5
71.684998	8.412416E-5
71.690002	8.516025E-5
71.695000	8.589600E-5
71.699997	8.653023E-5
71.705002	8.721952E-5
71.714996	8.843304E-5
71.720001	8.964236E-5
71.724998	8.989614E-5
71.730003	9.081792E-5
71.735001	9.175239E-5
71.745003	9.311398E-5
71.750000	9.404006E-5
71.754997	9.484345E-5
71.760002	9.565533E-5
71.764999	9.666593E-5
71.775002	9.785418E-5
71.779999	9.953708E-5
71.785004	9.966816E-5
71.790001	0.000101
71.794998	0.000102
71.805000	0.000103
71.809998	0.000104
71.815002	0.000105
71.820000	0.000106
71.824997	0.000107
71.834999	0.000108
71.839996	0.000109
71.845001	0.000110
71.849998	0.000111
71.855003	0.000112
71.864998	0.000113
71.870003	0.000115
71.875000	0.000116
71.879997	0.000117
71.885002	0.000119
71.894997	0.000120
71.900002	0.000120
71.904999	0.000122
71.910004	0.000122
71.915001	0.000123
71.925003	0.000125
71.930000	0.000127
71.934998	0.000128
71.940002	0.000128
71.945000	0.000130
71.955002	0.000132
71.959999	0.000133
71.964996	0.000134
71.970001	0.000135
71.974998	0.000136
71.985001	0.000138
71.989998	0.000139
71.995003	0.000140
72.000000	0.000141
72.004997	0.000142
72.014999	0.000144
72.019997	0.000145
72.025002	0.000146
72.029999	0.000147
72.035004	0.000148
72.044998	0.000151
72.050003	0.000152
72.055000	0.000153
72.059998	0.000154
72.065002	0.000155
72.074997	0.000157
72.080002	0.000158
72.084999	0.000160
72.089996	0.000161
72.095001	0.000162
72.105003	0.000164
72.110001	0.000165
72.114998	0.000167
72.120003	0.000167
72.125000	0.000168
72.135002	0.000171
72.139999	0.000171
72.144997	0.000173
72.150002	0.000174
72.154999	0.000175
72.165001	0.000177
72.169998	0.000179
72.175003	0.000180
72.180000	0.000181
72.184998	0.000182
72.195000	0.000183
72.199997	0.000185
72.205002	0.000186
72.209999	0.000188
72.214996	0.000188
72.224998	0.000190
72.230003	0.000191
72.235001	0.000192
72.239998	0.000194
72.245003	0.000195
72.254997	0.000196
72.260002	0.000198
72.264999	0.000198
72.269997	0.000200
72.275002	0.000201
72.285004	0.000202
72.290001	0.000204
72.294998	0.000205
72.300003	0.000206
72.305000	0.000206
72.315002	0.000208
72.320000	0.000210
72.324997	0.000210
72.330002	0.000212
72.334999	0.000212
72.345001	0.000214
72.349998	0.000215
72.355003	0.000216
72.360001	0.000216
72.364998	0.000217
72.375000	0.000218
72.379997	0.000219
72.385002	0.000220
72.389999	0.000221
72.394997	0.000221
72.404999	0.000223
72.410004	0.000224
72.415001	0.000224
72.419998	0.000225
72.425003	0.000225
72.434998	0.000227
72.440002	0.000227
72.445000	0.000228
72.449997	0.000229
72.455002	0.000229
72.464996	0.000230
72.470001	0.000231
72.474998	0.000232
72.480003	0.000232
72.485001	0.000233
72.495003	0.000233
72.500000	0.000234
72.504997	0.000234
72.510002	0.000235
72.514999	0.000235
72.525002	0.000236
72.529999	0.000236
72.535004	0.000237
72.540001	0.000237
72.544998	0.000238
72.555000	0.000239
72.559998	0.000239
72.565002	0.000239
72.570000	0.000240
72.574997	0.000240
72.584999	0.000241
72.589996	0.000241
72.595001	0.000242
72.599998	0.000242
72.605003	0.000242
72.614998	0.000243
72.620003	0.000243
72.625000	0.000244
72.629997	0.000244
72.639999	0.000245
72.644997	0.000245
72.650002	0.000245
72.654999	0.000246
72.660004	0.000246
72.669998	0.000247
72.675003	0.000247
72.680000	0.000248
72.684998	0.000248
72.690002	0.000248
72.699997	0.000249
72.705002	0.000249
72.709999	0.000249
72.714996	0.000250
72.720001	0.000250
72.730003	0.000251
72.735001	0.000251
72.739998	0.000251
72.745003	0.000252
72.750000	0.000252
72.760002	0.000253
72.764999	0.000253
72.769997	0.000253
72.775002	0.000254
72.779999	0.000254
72.790001	0.000255
72.794998	0.000255
72.800003	0.000255
72.805000	0.000255
72.809998	0.000256
72.820000	0.000256
72.824997	0.000256
72.830002	0.000257
72.834999	0.000257
72.839996	0.000257
72.849998	0.000258
72.855003	0.000258
72.860001	0.000258
72.864998	0.000259
72.870003	0.000259
72.879997	0.000260
72.885002	0.000260
72.889999	0.000260
72.894997	0.000260
72.900002	0.000261
72.910004	0.000261
72.915001	0.000261
72.919998	0.000262
72.925003	0.000262
72.930000	0.000262
72.940002	0.000263
72.945000	0.000263
72.949997	0.000263
72.955002	0.000263
72.959999	0.000264
72.970001	0.000264
72.974998	0.000264
72.980003	0.000265
72.985001	0.000265
72.989998	0.000265
73.000000	0.000266
73.004997	0.000266
73.010002	0.000266
73.014999	0.000266
73.019997	0.000267
73.029999	0.000267
73.035004	0.000267
73.040001	0.000268
73.044998	0.000268
73.050003	0.000268
73.059998	0.000269
73.065002	0.000269
73.070000	0.000269
73.074997	0.000269
73.080002	0.000269
73.089996	0.000270
73.095001	0.000270
73.099998	0.000270
73.105003	0.000271
73.110001	0.000271
73.120003	0.000271
73.125000	0.000271
73.129997	0.000272
73.135002	0.000272
73.139999	0.000272
73.150002	0.000273
73.154999	0.000273
73.160004	0.000273
73.165001	0.000273
73.169998	0.000273
73.180000	0.000274
73.184998	0.000274
73.190002	0.000274
73.195000	0.000274
73.199997	0.000275
73.209999	0.000275
73.214996	0.000275
73.220001	0.000275
73.224998	0.000276
73.230003	0.000276
73.239998	0.000276
73.245003	0.000277
73.250000	0.000277
73.254997	0.000277
73.260002	0.000277
73.269997	0.000277
73.275002	0.000278
73.279999	0.000278
73.285004	0.000278
73.290001	0.000278
73.300003	0.000278
73.305000	0.000279
73.309998	0.000279
73.315002	0.000279
73.320000	0.000279
73.330002	0.000280
73.334999	0.000280
73.339996	0.000280
73.345001	0.000280
73.349998	0.000281
73.360001	0.000281
73.364998	0.000281
73.370003	0.000281
73.375000	0.000281
73.379997	0.000282
73.389999	0.000282
73.394997	0.000282
73.400002	0.000282
73.404999	0.000283
73.410004	0.000283
73.419998	0.000283
73.425003	0.000283
73.430000	0.000284
73.434998	0.000284
73.440002	0.000284
73.449997	0.000284
73.455002	0.000284
73.459999	0.000284
73.464996	0.000284
73.470001	0.000285
73.480003	0.000285
73.485001	0.000285
73.489998	0.000285
73.495003	0.000286
73.500000	0.000286
73.510002	0.000286
73.514999	0.000286
73.519997	0.000286
73.525002	0.000287
73.529999	0.000287
73.540001	0.000287
73.544998	0.000287
73.550003	0.000287
73.555000	0.000287
73.559998	0.000288
73.570000	0.000288
73.574997	0.000288
73.580002	0.000288
73.584999	0.000288
73.589996	0.000289
73.599998	0.000289
73.605003	0.000289
73.610001	0.000289
73.614998	0.000289
73.620003	0.000290
73.629997	0.000290
73.635002	0.000290
73.639999	0.000290
73.644997	0.000290
73.650002	0.000290
73.660004	0.000291
73.665001	0.000291
73.669998	0.000291
73.675003	0.000291
73.680000	0.000291
73.690002	0.000292
73.695000	0.000292
73.699997	0.000292
73.705002	0.000292
73.709999	0.000292
73.720001	0.000292
73.724998	0.000293
73.730003	0.000293
73.735001	0.000293
73.739998	0.000293
73.750000	0.000293
73.754997	0.000293
73.760002	0.000294
73.764999	0.000294
73.769997	0.000294
73.779999	0.000294
73.785004	0.000294
73.790001	0.000294
73.794998	0.000295
73.800003	0.000295
73.809998	0.000295
73.815002	0.000295
73.820000	0.000295
73.824997	0.000295
73.830002	0.000295
73.839996	0.000296
73.845001	0.000296
73.849998	0.000296
73.855003	0.000296
73.860001	0.000296
73.870003	0.000297
73.875000	0.000297
73.879997	0.000297
73.885002	0.000297
73.889999	0.000297
73.900002	0.000297
73.904999	0.000298
73.910004	0.000297
73.915001	0.000298
73.919998	0.000298
73.930000	0.000298
73.934998	0.000298
73.940002	0.000298
73.945000	0.000298
73.949997	0.000299
73.959999	0.000299
73.964996	0.000299
73.970001	0.000299
73.974998	0.000299
73.980003	0.000299
73.989998	0.000300
73.995003	0.000300
74.000000	0.000300
74.004997	0.000300
74.014999	0.000300
74.019997	0.000300
74.025002	0.000300
74.029999	0.000300
74.035004	0.000300
74.044998	0.000301
74.050003	0.000301
74.055000	0.000301
74.059998	0.000301
74.065002	0.000301
74.074997	0.000302
74.080002	0.000302
74.084999	0.000302
74.089996	0.000302
74.095001	0.000302
74.105003	0.000302
74.110001	0.000302
74.114998	0.000302
74.120003	0.000302
74.125000	0.000303
74.135002	0.000303
74.139999	0.000303
74.144997	0.000303
74.150002	0.000303
74.154999	0.000303
74.165001	0.000304
74.169998	0.000304
74.175003	0.000304
74.180000	0.000304
74.184998	0.000304
74.195000	0.000304
74.199997	0.000304
74.205002	0.000304
74.209999	0.000304
74.214996	0.000305
74.224998	0.000305
74.230003	0.000305
74.235001	0.000305
74.239998	0.000305
74.245003	0.000305
74.254997	0.000306
74.260002	0.000306
74.264999	0.000306
74.269997	0.000306
74.275002	0.000306
74.285004	0.000306
74.290001	0.000306
74.294998	0.000306
74.300003	0.000306
74.305000	0.000306
74.315002	0.000307
74.320000	0.000307
74.324997	0.000307
74.330002	0.000307
74.334999	0.000307
74.345001	0.000307
74.349998	0.000307
74.355003	0.000308
74.360001	0.000308
74.364998	0.000308
74.375000	0.000308
74.379997	0.000308
74.385002	0.000308
74.389999	0.000308
74.394997	0.000308
74.404999	0.000308
74.410004	0.000308
74.415001	0.000309
74.419998	0.000309
74.425003	0.000309
74.434998	0.000309
74.440002	0.000309
74.445000	0.000309
74.449997	0.000309
74.455002	0.000309
74.464996	0.000310
74.470001	0.000310
74.474998	0.000310
74.480003	0.000310
74.485001	0.000310
74.495003	0.000310
74.500000	0.000310
74.504997	0.000310
74.510002	0.000310
74.514999	0.000310
74.525002	0.000311
74.529999	0.000311
74.535004	0.000311
74.540001	0.000311
74.544998	0.000311
74.555000	0.000311
74.559998	0.000311
74.565002	0.000311
74.570000	0.000311
74.574997	0.000311
74.584999	0.000312
74.589996	0.000312
74.595001	0.000312
74.599998	0.000312
74.605003	0.000312
74.614998	0.000312
74.620003	0.000312
74.625000	0.000313
74.629997	0.000313
74.635002	0.000313
74.644997	0.000313
74.650002	0.000313
74.654999	0.000313
74.660004	0.000313
74.665001	0.000313
74.675003	0.000313
74.680000	0.000313
74.684998	0.000313
74.690002	0.000314
74.695000	0.000314
74.705002	0.000314
74.709999	0.000314
74.714996	0.000314
74.720001	0.000314
74.724998	0.000314
74.735001	0.000314
74.739998	0.000314
74.745003	0.000314
74.750000	0.000314
74.754997	0.000314
74.764999	0.000315
74.769997	0.000315
74.775002	0.000315
74.779999	0.000315
74.785004	0.000315
74.794998	0.000315
74.800003	0.000315
74.805000	0.000316
74.809998	0.000316
74.815002	0.000316
74.824997	0.000316
74.830002	0.000316
74.834999	0.000316
74.839996	0.000316
74.845001	0.000316
74.855003	0.000316
74.860001	0.000316
74.864998	0.000316
74.870003	0.000316
74.875000	0.000317
74.885002	0.000317
74.889999	0.000317
74.894997	0.000317
74.900002	0.000317
74.904999	0.000317
74.915001	0.000317
74.919998	0.000317
74.925003	0.000317
74.930000	0.000317
74.934998	0.000317
74.945000	0.000317
74.949997	0.000317
74.955002	0.000318
74.959999	0.000318
74.964996	0.000318
74.974998	0.000318
74.980003	0.000318
74.985001	0.000318
74.989998	0.000318
74.995003	0.000318
75.004997	0.000318
75.010002	0.000319
75.014999	0.000319
75.019997	0.000319
75.025002	0.000319
75.035004	0.000319
75.040001	0.000319
75.044998	0.000319
75.050003	0.000319
75.055000	0.000319
75.065002	0.000319
75.070000	0.000319
75.074997	0.000320
75.080002	0.000320
75.084999	0.000320
75.095001	0.000320
75.099998	0.000320
75.105003	0.000320
75.110001	0.000320
75.114998	0.000320
75.125000	0.000320
75.129997	0.000320
75.135002	0.000320
75.139999	0.000320
75.144997	0.000320
75.154999	0.000320
75.160004	0.000321
75.165001	0.000321
75.169998	0.000321
75.175003	0.000321
75.184998	0.000321
75.190002	0.000321
75.195000	0.000321
75.199997	0.000321
75.205002	0.000321
75.214996	0.000321
75.220001	0.000321
75.224998	0.000321
75.230003	0.000321
75.235001	0.000322
75.245003	0.000322
75.250000	0.000322
75.254997	0.000322
75.260002	0.000322
75.264999	0.000322
75.275002	0.000322
75.279999	0.000322
75.285004	0.000322
75.290001	0.000322
75.294998	0.000322
75.305000	0.000323
75.309998	0.000322
75.315002	0.000322
75.320000	0.000323
75.324997	0.000323
75.334999	0.000323
75.339996	0.000323
75.345001	0.000323
75.349998	0.000323
75.355003	0.000323
75.364998	0.000323
75.370003	0.000323
75.375000	0.000324
75.379997	0.000324
75.389999	0.000324
75.394997	0.000324
75.400002	0.000324
75.404999	0.000324
75.410004	0.000324
75.419998	0.000324
75.425003	0.000324
75.430000	0.000324
75.434998	0.000324
75.440002	0.000324
75.449997	0.000324
75.455002	0.000324
75.459999	0.000324
75.464996	0.000325
75.470001	0.000325
75.480003	0.000325
75.485001	0.000325
75.489998	0.000325
75.495003	0.000325
75.500000	0.000325
75.510002	0.000325
75.514999	0.000325
75.519997	0.000325
75.525002	0.000325
75.529999	0.000325
75.540001	0.000325
75.544998	0.000325
75.550003	0.000325
75.555000	0.000325
75.559998	0.000326
75.570000	0.000326
75.574997	0.000326
75.580002	0.000326
75.584999	0.000326
75.589996	0.000326
75.599998	0.000326
75.605003	0.000326
75.610001	0.000326
75.614998	0.000326
75.620003	0.000326
75.629997	0.000326
75.635002	0.000326
75.639999	0.000326
75.644997	0.000327
75.650002	0.000327
75.660004	0.000327
75.665001	0.000327
75.669998	0.000327
75.675003	0.000327
75.680000	0.000327
75.690002	0.000327
75.695000	0.000327
75.699997	0.000327
75.705002	0.000327
75.709999	0.000327
75.720001	0.000327
75.724998	0.000327
75.730003	0.000327
75.735001	0.000328
75.739998	0.000327
75.750000	0.000328
75.754997	0.000328
75.760002	0.000328
75.764999	0.000328
75.769997	0.000328
75.779999	0.000328
75.785004	0.000328
75.790001	0.000328
75.794998	0.000328
75.800003	0.000328
75.809998	0.000328
75.815002	0.000328
75.820000	0.000328
75.824997	0.000328
75.830002	0.000328
75.839996	0.000329
75.845001	0.000329
75.849998	0.000329
75.855003	0.000329
75.860001	0.000329
75.870003	0.000329
75.875000	0.000329
75.879997	0.000329
75.885002	0.000329
75.889999	0.000329
75.900002	0.000329
75.904999	0.000329
75.910004	0.000329
75.915001	0.000329
75.919998	0.000329
75.930000	0.000329
75.934998	0.000329
75.940002	0.000330
75.945000	0.000330
75.949997	0.000329
75.959999	0.000330
75.964996	0.000330
75.970001	0.000330
75.974998	0.000330
75.980003	0.000330
75.989998	0.000330
75.995003	0.000330
76.000000	0.000330
76.004997	0.000330
76.010002	0.000330
76.019997	0.000330
76.025002	0.000330
76.029999	0.000330
76.035004	0.000330
76.040001	0.000330
76.050003	0.000330
76.055000	0.000330
76.059998	0.000330
76.065002	0.000330
76.070000	0.000330
76.080002	0.000330
76.084999	0.000331
76.089996	0.000331
76.095001	0.000331
76.099998	0.000331
76.110001	0.000331
76.114998	0.000331
76.120003	0.000331
76.125000	0.000331
76.129997	0.000331
76.139999	0.000331
76.144997	0.000331
76.150002	0.000331
76.154999	0.000331
76.160004	0.000331
76.169998	0.000331
76.175003	0.000331
76.180000	0.000331
76.184998	0.000332
76.190002	0.000332
76.199997	0.000332
76.205002	0.000332
76.209999	0.000332
76.214996	0.000332
76.220001	0.000332
76.230003	0.000332
76.235001	0.000332
76.239998	0.000332
76.245003	0.000332
76.250000	0.000332
76.260002	0.000332
76.264999	0.000332
76.269997	0.000332
76.275002	0.000332
76.279999	0.000332
76.290001	0.000332
76.294998	0.000332
76.300003	0.000333
76.305000	0.000333
76.309998	0.000333
76.320000	0.000333
76.324997	0.000333
76.330002	0.000333
76.334999	0.000333
76.339996	0.000333
76.349998	0.000333
76.355003	0.000333
76.360001	0.000333
76.364998	0.000333
76.370003	0.000333
76.379997	0.000333
76.385002	0.000333
76.389999	0.000333
76.394997	0.000333
76.400002	0.000333
76.410004	0.000333
76.415001	0.000333
76.419998	0.000333
76.425003	0.000333
76.430000	0.000333
76.440002	0.000333
76.445000	0.000334
76.449997	0.000334
76.455002	0.000334
76.459999	0.000334
76.470001	0.000334
76.474998	0.000334
76.480003	0.000334
76.485001	0.000334
76.489998	0.000334
76.500000	0.000334
76.504997	0.000334
76.510002	0.000334
76.514999	0.000334
76.519997	0.000334
76.529999	0.000334
76.535004	0.000334
76.540001	0.000334
76.544998	0.000334
76.550003	0.000334
76.559998	0.000334
76.565002	0.000335
76.570000	0.000335
76.574997	0.000335
76.580002	0.000335
76.589996	0.000335
76.595001	0.000335
76.599998	0.000335
76.605003	0.000335
76.610001	0.000335
76.620003	0.000335
76.625000	0.000335
76.629997	0.000335
76.635002	0.000335
76.639999	0.000335
76.650002	0.000335
76.654999	0.000335
76.660004	0.000335
76.665001	0.000335
76.669998	0.000335
76.680000	0.000335
76.684998	0.000335
76.690002	0.000335
76.695000	0.000335
76.699997	0.000335
76.709999	0.000335
76.714996	0.000335
76.720001	0.000335
76.724998	0.000335
76.730003	0.000336
76.739998	0.000336
76.745003	0.000336
76.750000	0.000336
76.754997	0.000336
76.760002	0.000336
76.769997	0.000336
76.775002	0.000336
76.779999	0.000336
76.785004	0.000336
76.794998	0.000336
76.800003	0.000336
76.805000	0.000336
76.809998	0.000336
76.815002	0.000336
76.824997	0.000336
76.830002	0.000336
76.834999	0.000336
76.839996	0.000336
76.845001	0.000336
76.855003	0.000337
76.860001	0.000337
76.864998	0.000337
76.870003	0.000336
76.875000	0.000336
76.885002	0.000336
76.889999	0.000337
76.894997	0.000336
76.900002	0.000337
76.904999	0.000337
76.915001	0.000337
76.919998	0.000337
76.925003	0.000337
76.930000	0.000337
76.934998	0.000337
76.945000	0.000337
76.949997	0.000337
76.955002	0.000337
76.959999	0.000337
76.964996	0.000337
76.974998	0.000337
76.980003	0.000337
76.985001	0.000337
76.989998	0.000337
76.995003	0.000337
77.004997	0.000337
77.010002	0.000337
77.014999	0.000337
77.019997	0.000337
77.025002	0.000337
77.035004	0.000337
77.040001	0.000338
77.044998	0.000338
77.050003	0.000337
77.055000	0.000338
77.065002	0.000338
77.070000	0.000337
77.074997	0.000338
77.080002	0.000338
77.084999	0.000338
77.095001	0.000338
77.099998	0.000338
77.105003	0.000338
77.110001	0.000338
77.114998	0.000338
77.125000	0.000338
77.129997	0.000338
77.135002	0.000338
77.139999	0.000338
77.144997	0.000338
77.154999	0.000338
77.160004	0.000338
77.165001	0.000338
77.169998	0.000338
77.175003	0.000338
77.184998	0.000338
77.190002	0.000338
77.195000	0.000338
77.199997	0.000338
77.205002	0.000338
77.214996	0.000339
77.220001	0.000338
77.224998	0.000339
77.230003	0.000338
77.235001	0.000339
77.245003	0.000339
77.250000	0.000339
77.254997	0.000339
77.260002	0.000339
77.264999	0.000339
77.275002	0.000339
77.279999	0.000339
77.285004	0.000339
77.290001	0.000339
77.294998	0.000339
77.305000	0.000339
77.309998	0.000339
77.315002	0.000339
77.320000	0.000339
77.324997	0.000339
77.334999	0.000339
77.339996	0.000339
77.345001	0.000339
77.349998	0.000339
77.355003	0.000339
77.364998	0.000339
77.370003	0.000339
77.375000	0.000339
77.379997	0.000339
77.385002	0.000339
77.394997	0.000340
77.400002	0.000340
77.404999	0.000340
77.410004	0.000340
77.415001	0.000340
77.425003	0.000340
77.430000	0.000340
77.434998	0.000339
77.440002	0.000340
77.445000	0.000339
77.455002	0.000340
77.459999	0.000340
77.464996	0.000340
77.470001	0.000340
77.474998	0.000340
77.485001	0.000340
77.489998	0.000340
77.495003	0.000340
77.500000	0.000340
77.504997	0.000340
77.514999	0.000340
77.519997	0.000340
77.525002	0.000340
77.529999	0.000340
77.535004	0.000340
77.544998	0.000340
77.550003	0.000340
77.555000	0.000340
77.559998	0.000340
77.565002	0.000340
77.574997	0.000340
77.580002	0.000340
77.584999	0.000340
77.589996	0.000340
77.595001	0.000340
77.605003	0.000340
77.610001	0.000340
77.614998	0.000340
77.620003	0.000340
77.625000	0.000340
77.635002	0.000340
77.639999	0.000340
77.644997	0.000340
77.650002	0.000341
77.654999	0.000341
77.665001	0.000341
77.669998	0.000341
77.675003	0.000341
77.680000	0.000341
77.684998	0.000341
77.695000	0.000341
77.699997	0.000341
77.705002	0.000341
77.709999	0.000341
77.714996	0.000341
77.724998	0.000341
77.730003	0.000341
77.735001	0.000341
77.739998	0.000341
77.745003	0.000341
77.754997	0.000341
77.760002	0.000341
77.764999	0.000341
77.769997	0.000341
77.775002	0.000341
77.785004	0.000341
77.790001	0.000341
77.794998	0.000341
77.800003	0.000341
77.805000	0.000341
77.815002	0.000341
77.820000	0.000341
77.824997	0.000341
77.830002	0.000341
77.834999	0.000341
77.845001	0.000341
77.849998	0.000341
77.855003	0.000342
77.860001	0.000342
77.864998	0.000342
77.875000	0.000342
77.879997	0.000341
77.885002	0.000342
77.889999	0.000341
77.894997	0.000342
77.904999	0.000342
77.910004	0.000342
77.915001	0.000342
77.919998	0.000342
77.925003	0.000342
77.934998	0.000342
77.940002	0.000342
77.945000	0.000342
77.949997	0.000342
77.955002	0.000342
77.964996	0.000342
77.970001	0.000342
77.974998	0.000342
77.980003	0.000342
77.985001	0.000342
77.995003	0.000342
78.000000	0.000342
78.004997	0.000342
78.010002	0.000342
78.014999	0.000342
78.025002	0.000342
78.029999	0.000342
78.035004	0.000342
78.040001	0.000342
78.044998	0.000342
78.055000	0.000342
78.059998	0.000342
78.065002	0.000342
78.070000	0.000342
78.074997	0.000342
78.084999	0.000342
78.089996	0.000342
78.095001	0.000342
78.099998	0.000342
78.105003	0.000342
78.114998	0.000342
78.120003	0.000343
78.125000	0.000343
78.129997	0.000343
78.135002	0.000343
78.144997	0.000343
78.150002	0.000343
78.154999	0.000343
78.160004	0.000343
78.169998	0.000343
78.175003	0.000343
78.180000	0.000343
78.184998	0.000343
78.190002	0.000343
78.199997	0.000343
78.205002	0.000343
78.209999	0.000343
78.214996	0.000343
78.220001	0.000343
78.230003	0.000343
78.235001	0.000343
78.239998	0.000343
78.245003	0.000343
78.250000	0.000343
78.260002	0.000343
78.264999	0.000343
78.269997	0.000343
78.275002	0.000343
78.279999	0.000343
78.290001	0.000343
78.294998	0.000343
78.300003	0.000343
78.305000	0.000343
78.309998	0.000343
78.320000	0.000343
78.324997	0.000343
78.330002	0.000343
78.334999	0.000343
78.339996	0.000343
78.349998	0.000343
78.355003	0.000343
78.360001	0.000343
78.364998	0.000343
78.370003	0.000343
78.379997	0.000343
78.385002	0.000343
78.389999	0.000343
78.394997	0.000344
78.400002	0.000344
78.410004	0.000344
78.415001	0.000344
78.419998	0.000344
78.425003	0.000344
78.430000	0.000344
78.440002	0.000343
78.445000	0.000344
78.449997	0.000343
78.455002	0.000343
78.459999	0.000344
78.470001	0.000344
78.474998	0.000344
78.480003	0.000344
78.485001	0.000344
78.489998	0.000344
78.500000	0.000344
78.504997	0.000344
78.510002	0.000344
78.514999	0.000344
78.519997	0.000344
78.529999	0.000344
78.535004	0.000344
78.540001	0.000344
78.544998	0.000344
78.550003	0.000344
78.559998	0.000344
78.565002	0.000344
78.570000	0.000344
78.574997	0.000344
78.580002	0.000344
78.589996	0.000344
78.595001	0.000344
78.599998	0.000344
78.605003	0.000344
78.610001	0.000344
78.620003	0.000344
78.625000	0.000344
78.629997	0.000344
78.635002	0.000344
78.639999	0.000344
78.650002	0.000344
78.654999	0.000344
78.660004	0.000344
78.665001	0.000344
78.669998	0.000344
78.680000	0.000344
78.684998	0.000344
78.690002	0.000344
78.695000	0.000344
78.699997	0.000344
78.709999	0.000344
78.714996	0.000344
78.720001	0.000344
78.724998	0.000344
78.730003	0.000344
78.739998	0.000344
78.745003	0.000344
78.750000	0.000344
78.754997	0.000344
78.760002	0.000345
78.769997	0.000345
78.775002	0.000345
78.779999	0.000345
78.785004	0.000345
78.790001	0.000345
78.800003	0.000345
78.805000	0.000345
78.809998	0.000345
78.815002	0.000345
78.820000	0.000345
78.830002	0.000345
78.834999	0.000345
78.839996	0.000345
78.845001	0.000345
78.849998	0.000345
78.860001	0.000345
78.864998	0.000345
78.870003	0.000345
78.875000	0.000345
78.879997	0.000345
78.889999	0.000345
78.894997	0.000345
78.900002	0.000345
78.904999	0.000345
78.910004	0.000345
78.919998	0.000345
78.925003	0.000345
78.930000	0.000345
78.934998	0.000345
78.940002	0.000345
78.949997	0.000345
78.955002	0.000345
78.959999	0.000345
78.964996	0.000345
78.970001	0.000345
78.980003	0.000345
78.985001	0.000345
78.989998	0.000345
78.995003	0.000345
79.000000	0.000345
79.010002	0.000345
79.014999	0.000345
79.019997	0.000345
79.025002	0.000345
79.029999	0.000345
79.040001	0.000345
79.044998	0.000345
79.050003	0.000345
79.055000	0.000345
79.059998	0.000345
79.070000	0.000345
79.074997	0.000345
79.080002	0.000345
79.084999	0.000345
79.089996	0.000345
79.099998	0.000345
79.105003	0.000345
79.110001	0.000345
79.114998	0.000345
79.120003	0.000345
79.129997	0.000346
79.135002	0.000346
79.139999	0.000346
79.144997	0.000346
79.150002	0.000346
79.160004	0.000346
79.165001	0.000345
79.169998	0.000346
79.175003	0.000345
79.180000	0.000345
79.190002	0.000346
79.195000	0.000346
79.199997	0.000345
79.205002	0.000346
79.209999	0.000346
79.220001	0.000346
79.224998	0.000346
79.230003	0.000346
79.235001	0.000346
79.239998	0.000346
79.250000	0.000346
79.254997	0.000346
79.260002	0.000346
79.264999	0.000346
79.269997	0.000346
79.279999	0.000346
79.285004	0.000346
79.290001	0.000346
79.294998	0.000346
79.300003	0.000346
79.309998	0.000346
79.315002	0.000346
79.320000	0.000346
79.324997	0.000346
79.330002	0.000346
79.339996	0.000346
79.345001	0.000346
79.349998	0.000346
79.355003	0.000346
79.360001	0.000346
79.370003	0.000346
79.375000	0.000346
79.379997	0.000346
79.385002	0.000346
79.389999	0.000346
79.400002	0.000346
79.404999	0.000346
79.410004	0.000346
79.415001	0.000346
79.419998	0.000346
79.430000	0.000346
79.434998	0.000346
79.440002	0.000346
79.445000	0.000346
79.449997	0.000346
79.459999	0.000346
79.464996	0.000346
79.470001	0.000346
79.474998	0.000346
79.480003	0.000346
79.489998	0.000346
79.495003	0.000346
79.500000	0.000346
79.504997	0.000346
79.510002	0.000346
79.519997	0.000346
79.525002	0.000346
79.529999	0.000346
79.535004	0.000346
79.544998	0.000346
79.550003	0.000346
79.555000	0.000346
79.559998	0.000346
79.565002	0.000346
79.574997	0.000346
79.580002	0.000346
79.584999	0.000347
79.589996	0.000347
79.595001	0.000347
79.605003	0.000347
79.610001	0.000347
79.614998	0.000347
79.620003	0.000347
79.625000	0.000347
79.635002	0.000347
79.639999	0.000346
79.644997	0.000347
79.650002	0.000347
79.654999	0.000347
79.665001	0.000347
79.669998	0.000347
79.675003	0.000347
79.680000	0.000347
79.684998	0.000347
79.695000	0.000347
79.699997	0.000347
79.705002	0.000347
79.709999	0.000347
79.714996	0.000347
79.724998	0.000347
79.730003	0.000347
79.735001	0.000347
79.739998	0.000347
79.745003	0.000347
79.754997	0.000347
79.760002	0.000347
79.764999	0.000347
79.769997	0.000347
79.775002	0.000347
79.785004	0.000347
79.790001	0.000347
79.794998	0.000347
79.800003	0.000347
79.805000	0.000347
79.815002	0.000347
79.820000	0.000347
79.824997	0.000347
79.830002	0.000347
79.834999	0.000347
79.845001	0.000347
79.849998	0.000347
79.855003	0.000347
79.860001	0.000347
79.864998	0.000347
79.875000	0.000347
79.879997	0.000347
79.885002	0.000347
79.889999	0.000347
79.894997	0.000347
79.904999	0.000347
79.910004	0.000347
79.915001	0.000347
79.919998	0.000347
79.925003	0.000347
79.934998	0.000347
79.940002	0.000347
79.945000	0.000347
79.949997	0.000347
79.955002	0.000347
79.964996	0.000347
79.970001	0.000347
79.974998	0.000347
79.980003	0.000347
79.985001	0.000347
79.995003	0.000347
80.000000	0.000347
