% Langmuir characteristic curve

% U (Volt)	I (A)
65.000000	-2.642628E-7
65.004997	-2.515735E-7
65.010002	-3.572786E-7
65.019997	-4.207250E-7
65.025002	-3.783498E-7
65.029999	-5.306210E-7
65.035004	-6.787013E-7
65.040001	-3.487803E-7
65.050003	-7.124618E-7
65.055000	-5.433103E-7
65.059998	-5.306210E-7
65.065002	-5.348120E-7
65.070000	-3.910391E-7
65.080002	-5.348120E-7
65.084999	-4.122267E-7
65.089996	-2.726447E-7
65.095001	-3.741588E-7
65.099998	-3.826572E-7
65.110001	-3.953464E-7
65.114998	-3.699679E-7
65.120003	-4.080357E-7
65.125000	-3.319001E-7
65.129997	-4.968606E-7
65.139999	-4.968606E-7
65.144997	-5.433103E-7
65.150002	-4.502945E-7
65.154999	-5.771872E-7
65.160004	-4.334142E-7
65.169998	-3.022142E-7
65.175003	-2.642628E-7
65.180000	-2.557645E-7
65.184998	-2.895249E-7
65.190002	-5.052425E-7
65.199997	-3.529713E-7
65.205002	-4.122267E-7
65.209999	-3.741588E-7
65.214996	-4.798640E-7
65.220001	-5.475013E-7
65.230003	-3.107125E-7
65.235001	-4.968606E-7
65.239998	-5.052425E-7
65.245003	-2.684537E-7
65.250000	-5.601905E-7
65.260002	-1.627486E-7
65.264999	-3.783498E-7
65.269997	-3.656605E-7
65.275002	-3.445894E-7
65.279999	-3.192108E-7
65.290001	-1.838198E-7
65.294998	-4.207250E-7
65.300003	-3.783498E-7
65.305000	-4.798640E-7
65.309998	-4.502945E-7
65.320000	-3.995374E-7
65.324997	-5.222391E-7
65.330002	-4.334142E-7
65.334999	-5.898764E-7
65.339996	-4.122267E-7
65.349998	-2.091983E-7
65.355003	-4.629837E-7
65.360001	-2.980232E-7
65.364998	-3.868481E-7
65.370003	-4.671747E-7
65.379997	-4.037283E-7
65.385002	-5.475013E-7
65.389999	-4.334142E-7
65.394997	-7.251510E-7
65.400002	-5.179318E-7
65.410004	-5.306210E-7
65.415001	-4.714821E-7
65.419998	-6.955815E-7
65.425003	-5.264301E-7
65.430000	-3.995374E-7
65.440002	-5.898764E-7
65.445000	-2.599554E-7
65.449997	-2.768356E-7
65.455002	-5.137408E-7
65.459999	-2.472661E-7
65.470001	-4.925532E-7
65.474998	-3.826572E-7
65.480003	-3.360910E-7
65.485001	-3.910391E-7
65.489998	-3.107125E-7
65.500000	-5.052425E-7
65.504997	-6.828923E-7
65.510002	-5.264301E-7
65.514999	-6.194459E-7
65.519997	-3.826572E-7
65.529999	-5.813781E-7
65.535004	-4.207250E-7
65.540001	-1.161825E-7
65.544998	-2.091983E-7
65.550003	-3.910391E-7
65.559998	-3.953464E-7
65.565002	-4.207250E-7
65.570000	-5.559996E-7
65.574997	-4.080357E-7
65.580002	-4.756730E-7
65.589996	-4.756730E-7
65.595001	-5.391194E-7
65.599998	-5.222391E-7
65.605003	-3.149034E-7
65.610001	-4.671747E-7
65.620003	-3.995374E-7
65.625000	-1.627486E-7
65.629997	-3.953464E-7
65.635002	-3.065215E-7
65.639999	-3.572786E-7
65.650002	-2.853340E-7
65.654999	-4.671747E-7
65.660004	-4.376052E-7
65.665001	-5.940674E-7
65.669998	-5.306210E-7
65.680000	-4.714821E-7
65.684998	-5.855691E-7
65.690002	-3.275927E-7
65.695000	-6.279442E-7
65.705002	-5.559996E-7
65.709999	-5.982583E-7
65.714996	-3.149034E-7
65.720001	-3.614696E-7
65.724998	-3.783498E-7
65.735001	-3.192108E-7
65.739998	-1.500593E-7
65.745003	-3.699679E-7
65.750000	-2.345769E-7
65.754997	-5.601905E-7
65.764999	-4.883623E-7
65.769997	-6.236369E-7
65.775002	-4.629837E-7
65.779999	-5.137408E-7
65.785004	-6.913906E-7
65.794998	-4.798640E-7
65.800003	-4.291069E-7
65.805000	-5.982583E-7
65.809998	-3.826572E-7
65.815002	-3.741588E-7
65.824997	-2.261950E-7
65.830002	-2.684537E-7
65.834999	-2.726447E-7
65.839996	-5.222391E-7
65.845001	-2.345769E-7
65.855003	-4.417961E-7
65.860001	-5.010515E-7
65.864998	-4.417961E-7
65.870003	-4.756730E-7
65.875000	-6.575137E-7
65.885002	-6.236369E-7
65.889999	-3.910391E-7
65.894997	-3.995374E-7
65.900002	-3.699679E-7
65.904999	-3.699679E-7
65.915001	-1.161825E-7
65.919998	-6.152550E-7
65.925003	-3.360910E-7
65.930000	-3.614696E-7
65.934998	-4.164176E-7
65.945000	-6.109476E-7
65.949997	-7.548369E-7
65.955002	-5.686888E-7
65.959999	-3.319001E-7
65.964996	-5.771872E-7
65.974998	-4.968606E-7
65.980003	-1.965091E-7
65.985001	-4.629837E-7
65.989998	-3.783498E-7
65.995003	-2.811430E-7
66.004997	-2.303859E-7
66.010002	-3.319001E-7
66.014999	-2.853340E-7
66.019997	-4.291069E-7
66.025002	-4.376052E-7
66.035004	-4.164176E-7
66.040001	-4.756730E-7
66.044998	-7.124618E-7
66.050003	-5.306210E-7
66.055000	-4.968606E-7
66.065002	-4.798640E-7
66.070000	-3.572786E-7
66.074997	-2.726447E-7
66.080002	-5.898764E-7
66.084999	-3.234018E-7
66.095001	-1.246808E-7
66.099998	-3.065215E-7
66.105003	-4.587928E-7
66.110001	-1.923181E-7
66.114998	-4.291069E-7
66.125000	-4.841713E-7
66.129997	-5.010515E-7
66.135002	-4.968606E-7
66.139999	-5.264301E-7
66.144997	-4.629837E-7
66.154999	-4.122267E-7
66.160004	-5.433103E-7
66.165001	-5.391194E-7
66.169998	-3.783498E-7
66.175003	-4.544854E-7
66.184998	-3.826572E-7
66.190002	-2.895249E-7
66.195000	-4.629837E-7
66.199997	-3.487803E-7
66.205002	-4.461035E-7
66.214996	-3.487803E-7
66.220001	-5.518086E-7
66.224998	-5.518086E-7
66.230003	-4.671747E-7
66.235001	-5.559996E-7
66.245003	-4.671747E-7
66.250000	-3.995374E-7
66.254997	-2.895249E-7
66.260002	-3.360910E-7
66.264999	-1.373701E-7
66.275002	-2.345769E-7
66.279999	-2.472661E-7
66.285004	-2.430752E-7
66.290001	-3.529713E-7
66.294998	-3.149034E-7
66.305000	-4.080357E-7
66.309998	-5.433103E-7
66.315002	-4.968606E-7
66.320000	-6.067567E-7
66.324997	-6.448245E-7
66.334999	-4.883623E-7
66.339996	-4.376052E-7
66.345001	-3.656605E-7
66.349998	-3.445894E-7
66.355003	-3.319001E-7
66.364998	-3.319001E-7
66.370003	-2.853340E-7
66.375000	-3.868481E-7
66.379997	-3.275927E-7
66.385002	-4.968606E-7
66.394997	-3.826572E-7
66.400002	-4.629837E-7
66.404999	-5.264301E-7
66.410004	-4.461035E-7
66.415001	-6.828923E-7
66.425003	-4.376052E-7
66.430000	-4.883623E-7
66.434998	-4.122267E-7
66.440002	-2.768356E-7
66.445000	-2.599554E-7
66.455002	-4.925532E-7
66.459999	-2.430752E-7
66.464996	-2.557645E-7
66.470001	-3.868481E-7
66.474998	-2.091983E-7
66.485001	-4.461035E-7
66.489998	-5.898764E-7
66.495003	-5.306210E-7
66.500000	-5.095499E-7
66.504997	-6.152550E-7
66.514999	-4.587928E-7
66.519997	-4.164176E-7
66.525002	-3.741588E-7
66.529999	-2.303859E-7
66.535004	-2.768356E-7
66.544998	-1.288718E-7
66.550003	-2.726447E-7
66.555000	-2.811430E-7
66.559998	-4.841713E-7
66.565002	-4.037283E-7
66.574997	-3.783498E-7
66.580002	-5.179318E-7
66.584999	-5.518086E-7
66.589996	-3.910391E-7
66.595001	-5.601905E-7
66.605003	-6.490154E-7
66.610001	-2.895249E-7
66.614998	-4.291069E-7
66.620003	-3.445894E-7
66.625000	-2.430752E-7
66.635002	-4.376052E-7
66.639999	-2.303859E-7
66.644997	-3.868481E-7
66.650002	-3.868481E-7
66.654999	-2.135057E-7
66.665001	-3.699679E-7
66.669998	-4.756730E-7
66.675003	-4.502945E-7
66.680000	-6.363261E-7
66.684998	-7.040799E-7
66.695000	-4.883623E-7
66.699997	-2.895249E-7
66.705002	-3.360910E-7
66.709999	-3.402820E-7
66.714996	-3.065215E-7
66.724998	-1.542503E-7
66.730003	-2.515735E-7
66.735001	-2.303859E-7
66.739998	-3.192108E-7
66.745003	-3.529713E-7
66.754997	-3.192108E-7
66.760002	-4.037283E-7
66.764999	-3.022142E-7
66.769997	-4.883623E-7
66.775002	-4.502945E-7
66.785004	-4.883623E-7
66.790001	-5.264301E-7
66.794998	-4.587928E-7
66.800003	-5.137408E-7
66.805000	-3.614696E-7
66.815002	-2.684537E-7
66.820000	-2.768356E-7
66.824997	-4.037283E-7
66.830002	-3.107125E-7
66.834999	-2.726447E-7
66.845001	-4.461035E-7
66.849998	-2.176967E-7
66.855003	-4.164176E-7
66.860001	-5.306210E-7
66.864998	-4.587928E-7
66.875000	-5.518086E-7
66.879997	-4.376052E-7
66.885002	-4.417961E-7
66.889999	-3.953464E-7
66.894997	-1.669396E-7
66.904999	-3.234018E-7
66.910004	-2.642628E-7
66.915001	-3.107125E-7
66.919998	-3.234018E-7
66.925003	-2.811430E-7
66.934998	-2.980232E-7
66.940002	-5.518086E-7
66.945000	-4.925532E-7
66.949997	-4.714821E-7
66.955002	-6.067567E-7
66.964996	-3.107125E-7
66.970001	-4.756730E-7
66.974998	-4.671747E-7
66.980003	-2.388842E-7
66.985001	-4.587928E-7
66.995003	-2.515735E-7
67.000000	-3.319001E-7
67.004997	-2.726447E-7
67.010002	-2.768356E-7
67.014999	-4.629837E-7
67.025002	-3.319001E-7
67.029999	-2.303859E-7
67.035004	-4.841713E-7
67.040001	-6.194459E-7
67.044998	-4.249159E-7
67.055000	-4.968606E-7
67.059998	-5.264301E-7
67.065002	-4.968606E-7
67.070000	-4.249159E-7
67.080002	-3.614696E-7
67.084999	-2.388842E-7
67.089996	-2.895249E-7
67.095001	-2.472661E-7
67.099998	-3.656605E-7
67.110001	-4.080357E-7
67.114998	-2.091983E-7
67.120003	-3.656605E-7
67.125000	-5.179318E-7
67.129997	-6.490154E-7
67.139999	-3.868481E-7
67.144997	-5.898764E-7
67.150002	-5.728798E-7
67.154999	-5.559996E-7
67.160004	-3.783498E-7
67.169998	-3.529713E-7
67.175003	-2.853340E-7
67.180000	-3.319001E-7
67.184998	-1.076842E-7
67.190002	-4.249159E-7
67.199997	-4.544854E-7
67.205002	-5.391194E-7
67.209999	-6.406335E-7
67.214996	-4.671747E-7
67.220001	-6.363261E-7
67.230003	-5.771872E-7
67.235001	-4.587928E-7
67.239998	-5.391194E-7
67.245003	-5.179318E-7
67.250000	-3.741588E-7
67.260002	-4.671747E-7
67.264999	-3.234018E-7
67.269997	-4.841713E-7
67.275002	-3.065215E-7
67.279999	-9.499490E-8
67.290001	-3.022142E-7
67.294998	-3.149034E-7
67.300003	-5.264301E-7
67.305000	-5.264301E-7
67.309998	-5.179318E-7
67.320000	-5.222391E-7
67.324997	-4.841713E-7
67.330002	-5.475013E-7
67.334999	-4.544854E-7
67.339996	-4.756730E-7
67.349998	-3.826572E-7
67.355003	-4.461035E-7
67.360001	-2.388842E-7
67.364998	-4.334142E-7
67.370003	-2.684537E-7
67.379997	-2.938323E-7
67.385002	-3.275927E-7
67.389999	-4.164176E-7
67.394997	-2.472661E-7
67.400002	-4.714821E-7
67.410004	-4.207250E-7
67.415001	-6.490154E-7
67.419998	-4.883623E-7
67.425003	-4.756730E-7
67.430000	-4.756730E-7
67.440002	-3.783498E-7
67.445000	-2.853340E-7
67.449997	-2.980232E-7
67.455002	-3.995374E-7
67.459999	-8.661300E-8
67.470001	-2.768356E-7
67.474998	-6.533228E-7
67.480003	-5.391194E-7
67.485001	-6.321352E-7
67.489998	-4.841713E-7
67.500000	-5.222391E-7
67.504997	-4.291069E-7
67.510002	-4.714821E-7
67.514999	-5.771872E-7
67.519997	-4.249159E-7
67.529999	-1.754379E-7
67.535004	-3.826572E-7
67.540001	-2.388842E-7
67.544998	-2.345769E-7
67.550003	-2.557645E-7
67.559998	-3.360910E-7
67.565002	-1.923181E-7
67.570000	-3.445894E-7
67.574997	-2.345769E-7
67.580002	-5.052425E-7
67.589996	-5.179318E-7
67.595001	-3.065215E-7
67.599998	-5.179318E-7
67.605003	-4.080357E-7
67.610001	-3.445894E-7
67.620003	-3.360910E-7
67.625000	-3.572786E-7
67.629997	-3.319001E-7
67.635002	-3.360910E-7
67.639999	-3.275927E-7
67.650002	-3.529713E-7
67.654999	-3.319001E-7
67.660004	-5.391194E-7
67.665001	-3.360910E-7
67.669998	-4.587928E-7
67.680000	-4.671747E-7
67.684998	-2.938323E-7
67.690002	-5.052425E-7
67.695000	-6.448245E-7
67.699997	-3.783498E-7
67.709999	-4.502945E-7
67.714996	-3.656605E-7
67.720001	-2.684537E-7
67.724998	-2.388842E-7
67.730003	-3.402820E-7
67.739998	-4.502945E-7
67.745003	-4.417961E-7
67.750000	-4.841713E-7
67.754997	-4.164176E-7
67.760002	-4.629837E-7
67.769997	-3.149034E-7
67.775002	-5.222391E-7
67.779999	-5.264301E-7
67.785004	-2.895249E-7
67.790001	-4.587928E-7
67.800003	-4.502945E-7
67.805000	-2.261950E-7
67.809998	-3.107125E-7
67.815002	-1.161825E-7
67.820000	-4.376052E-7
67.830002	-3.953464E-7
67.834999	-2.811430E-7
67.839996	-4.376052E-7
67.845001	-3.234018E-7
67.849998	-5.010515E-7
67.860001	-4.164176E-7
67.864998	-5.137408E-7
67.870003	-5.433103E-7
67.875000	-4.587928E-7
67.879997	-4.376052E-7
67.889999	-4.291069E-7
67.894997	-3.234018E-7
67.900002	-3.360910E-7
67.904999	-4.798640E-7
67.910004	-2.176967E-7
67.919998	-3.234018E-7
67.925003	-4.376052E-7
67.930000	-3.022142E-7
67.934998	-4.080357E-7
67.940002	-4.756730E-7
67.949997	-2.811430E-7
67.955002	-4.502945E-7
67.959999	-4.164176E-7
67.964996	-4.587928E-7
67.970001	-4.502945E-7
67.980003	-4.207250E-7
67.985001	-3.783498E-7
67.989998	-2.811430E-7
67.995003	-3.741588E-7
68.000000	-4.122267E-7
68.010002	-3.741588E-7
68.014999	-3.107125E-7
68.019997	-4.080357E-7
68.025002	-3.234018E-7
68.029999	-3.107125E-7
68.040001	-4.671747E-7
68.044998	-4.249159E-7
68.050003	-5.940674E-7
68.055000	-4.798640E-7
68.059998	-5.052425E-7
68.070000	-5.010515E-7
68.074997	-3.319001E-7
68.080002	-3.783498E-7
68.084999	-2.472661E-7
68.089996	-2.642628E-7
68.099998	-3.995374E-7
68.105003	-1.034932E-7
68.110001	-4.502945E-7
68.114998	-3.614696E-7
68.120003	-3.402820E-7
68.129997	-4.544854E-7
68.135002	-5.264301E-7
68.139999	-6.152550E-7
68.144997	-8.224742E-7
68.150002	-4.968606E-7
68.160004	-3.995374E-7
68.165001	-3.783498E-7
68.169998	-3.445894E-7
68.175003	-4.080357E-7
68.180000	-3.741588E-7
68.190002	-2.599554E-7
68.195000	-3.022142E-7
68.199997	-1.330627E-7
68.205002	-2.599554E-7
68.209999	-5.601905E-7
68.220001	-4.544854E-7
68.224998	-5.095499E-7
68.230003	-5.264301E-7
68.235001	-5.010515E-7
68.239998	-4.756730E-7
68.250000	-3.149034E-7
68.254997	-2.895249E-7
68.260002	-3.192108E-7
68.264999	-1.161825E-7
68.269997	-2.811430E-7
68.279999	-2.176967E-7
68.285004	-2.853340E-7
68.290001	-3.572786E-7
68.294998	-4.376052E-7
68.300003	-4.207250E-7
68.309998	-4.968606E-7
68.315002	-3.022142E-7
68.320000	-4.249159E-7
68.324997	-5.095499E-7
68.330002	-4.080357E-7
68.339996	-4.207250E-7
68.345001	-4.291069E-7
68.349998	-1.584413E-7
68.355003	-5.940674E-7
68.360001	-3.529713E-7
68.370003	-1.965091E-7
68.375000	-2.345769E-7
68.379997	-1.246808E-7
68.385002	-4.417961E-7
68.389999	-3.953464E-7
68.400002	-4.037283E-7
68.404999	-4.461035E-7
68.410004	-5.095499E-7
68.415001	-5.095499E-7
68.419998	-5.982583E-7
68.430000	-5.137408E-7
68.434998	-2.684537E-7
68.440002	-3.868481E-7
68.445000	-9.930227E-8
68.449997	-3.529713E-7
68.459999	-2.853340E-7
68.464996	-2.135057E-7
68.470001	-3.826572E-7
68.474998	-3.192108E-7
68.485001	-3.319001E-7
68.489998	-4.798640E-7
68.495003	-6.109476E-7
68.500000	-4.714821E-7
68.504997	-5.179318E-7
68.514999	-2.853340E-7
68.519997	-5.348120E-7
68.525002	-5.095499E-7
68.529999	-3.402820E-7
68.535004	-2.938323E-7
68.544998	-3.022142E-7
68.550003	-2.726447E-7
68.555000	-1.330627E-7
68.559998	-2.218876E-7
68.565002	-4.461035E-7
68.574997	-3.572786E-7
68.580002	-2.768356E-7
68.584999	-5.264301E-7
68.589996	-4.798640E-7
68.595001	-5.137408E-7
68.605003	-6.109476E-7
68.610001	-4.037283E-7
68.614998	-5.264301E-7
68.620003	-1.796288E-7
68.625000	-3.022142E-7
68.635002	-4.164176E-7
68.639999	-4.080357E-7
68.644997	-3.614696E-7
68.650002	-2.599554E-7
68.654999	-2.938323E-7
68.665001	-3.529713E-7
68.669998	-4.122267E-7
68.675003	-4.122267E-7
68.680000	-4.671747E-7
68.684998	-5.137408E-7
68.695000	-6.109476E-7
68.699997	-5.982583E-7
68.705002	-4.122267E-7
68.709999	-3.275927E-7
68.714996	-4.544854E-7
68.724998	-3.065215E-7
68.730003	-3.910391E-7
68.735001	-2.853340E-7
68.739998	-4.249159E-7
68.745003	-2.726447E-7
68.754997	-3.234018E-7
68.760002	-4.080357E-7
68.764999	-4.376052E-7
68.769997	-4.207250E-7
68.775002	-3.699679E-7
68.785004	-4.037283E-7
68.790001	-4.756730E-7
68.794998	-3.319001E-7
68.800003	-4.671747E-7
68.805000	-3.572786E-7
68.815002	-2.684537E-7
68.820000	-2.599554E-7
68.824997	-2.853340E-7
68.830002	-5.982583E-7
68.834999	-2.472661E-7
68.845001	-3.319001E-7
68.849998	-2.176967E-7
68.855003	-5.137408E-7
68.860001	-2.811430E-7
68.864998	-5.095499E-7
68.875000	-6.109476E-7
68.879997	-5.052425E-7
68.885002	-4.037283E-7
68.889999	-3.065215E-7
68.894997	-4.502945E-7
68.904999	-4.122267E-7
68.910004	-2.388842E-7
68.915001	-2.515735E-7
68.919998	-2.515735E-7
68.925003	-2.726447E-7
68.934998	-3.614696E-7
68.940002	-3.614696E-7
68.945000	-4.376052E-7
68.949997	-5.391194E-7
68.955002	-6.321352E-7
68.964996	-5.222391E-7
68.970001	-4.756730E-7
68.974998	-3.699679E-7
68.980003	-2.008164E-7
68.985001	-3.319001E-7
68.995003	-3.319001E-7
69.000000	-2.345769E-7
69.004997	-4.004687E-8
69.010002	-3.699679E-7
69.014999	-3.699679E-7
69.025002	-6.152550E-7
69.029999	-3.234018E-7
69.035004	-4.461035E-7
69.040001	-2.811430E-7
69.044998	-3.953464E-7
69.055000	-4.925532E-7
69.059998	-4.925532E-7
69.065002	-3.953464E-7
69.070000	-5.010515E-7
69.074997	-4.080357E-7
69.084999	-3.910391E-7
69.089996	-2.218876E-7
69.095001	-1.796288E-7
69.099998	-2.261950E-7
69.105003	-3.529713E-7
69.114998	-3.656605E-7
69.120003	-1.838198E-7
69.125000	-5.559996E-7
69.129997	-4.587928E-7
69.135002	-4.798640E-7
69.144997	-4.756730E-7
69.150002	-2.726447E-7
69.154999	-3.741588E-7
69.160004	-4.376052E-7
69.165001	-1.669396E-7
69.175003	-3.572786E-7
69.180000	-3.234018E-7
69.184998	-1.965091E-7
69.190002	-1.203734E-7
69.195000	-3.487803E-7
69.205002	-2.557645E-7
69.209999	-3.107125E-7
69.214996	-2.684537E-7
69.220001	-4.417961E-7
69.224998	-4.249159E-7
69.235001	-6.194459E-7
69.239998	-5.264301E-7
69.245003	-4.122267E-7
69.250000	-3.022142E-7
69.254997	-2.980232E-7
69.264999	-6.542541E-8
69.269997	-3.275927E-7
69.275002	-4.207250E-7
69.279999	-6.961636E-8
69.285004	-3.868481E-7
69.294998	-2.938323E-7
69.300003	-3.572786E-7
69.305000	-4.756730E-7
69.309998	-4.417961E-7
69.315002	-6.109476E-7
69.324997	-6.448245E-7
69.330002	-4.671747E-7
69.334999	-4.798640E-7
69.339996	-4.925532E-7
69.345001	-1.711305E-7
69.355003	-3.192108E-7
69.360001	-3.868481E-7
69.364998	-2.176967E-7
69.370003	-3.022142E-7
69.375000	-2.726447E-7
69.385002	-3.741588E-7
69.389999	-5.095499E-7
69.394997	-4.334142E-7
69.400002	-4.037283E-7
69.404999	-5.179318E-7
69.415001	-2.895249E-7
69.419998	-4.968606E-7
69.425003	-5.264301E-7
69.430000	-2.938323E-7
69.434998	-3.529713E-7
69.445000	-4.883623E-7
69.449997	-2.811430E-7
69.455002	-2.430752E-7
69.459999	-3.910391E-7
69.464996	-2.135057E-7
69.474998	-2.388842E-7
69.480003	-3.699679E-7
69.485001	-7.209601E-7
69.489998	-4.249159E-7
69.495003	-4.629837E-7
69.504997	-2.895249E-7
69.510002	-2.726447E-7
69.514999	-4.883623E-7
69.519997	-1.923181E-7
69.525002	-3.022142E-7
69.535004	-5.898764E-7
69.540001	-3.741588E-7
69.544998	-3.699679E-7
69.550003	-1.415610E-7
69.555000	-3.910391E-7
69.565002	-2.642628E-7
69.570000	-3.699679E-7
69.574997	-4.376052E-7
69.580002	-3.741588E-7
69.584999	-4.756730E-7
69.595001	-4.841713E-7
69.599998	-4.714821E-7
69.605003	-4.841713E-7
69.610001	-3.826572E-7
69.614998	-4.037283E-7
69.625000	-2.811430E-7
69.629997	-3.699679E-7
69.635002	-3.022142E-7
69.639999	-4.080357E-7
69.644997	-2.515735E-7
69.654999	-2.684537E-7
69.660004	-3.741588E-7
69.665001	-3.022142E-7
69.669998	-4.417961E-7
69.675003	-6.194459E-7
69.684998	-4.417961E-7
69.690002	-5.010515E-7
69.695000	-5.686888E-7
69.699997	-3.445894E-7
69.705002	-4.925532E-7
69.714996	-1.457520E-7
69.720001	-2.853340E-7
69.724998	-2.599554E-7
69.730003	-2.430752E-7
69.735001	-2.726447E-7
69.745003	-2.515735E-7
69.750000	-3.656605E-7
69.754997	-2.938323E-7
69.760002	-2.303859E-7
69.764999	-5.179318E-7
69.775002	-5.391194E-7
69.779999	-2.726447E-7
69.785004	-4.714821E-7
69.790001	-5.264301E-7
69.794998	-2.980232E-7
69.805000	-3.065215E-7
69.809998	-3.487803E-7
69.815002	-3.360910E-7
69.820000	-2.557645E-7
69.824997	-3.149034E-7
69.834999	-2.853340E-7
69.839996	-4.502945E-7
69.845001	-1.627486E-7
69.849998	-3.826572E-7
69.860001	-3.826572E-7
69.864998	-4.291069E-7
69.870003	-5.771872E-7
69.875000	-4.714821E-7
69.879997	-3.868481E-7
69.889999	-3.107125E-7
69.894997	-2.135057E-7
69.900002	-2.472661E-7
69.904999	-2.684537E-7
69.910004	-7.392373E-8
69.919998	-1.923181E-7
69.925003	-2.303859E-7
69.930000	-3.402820E-7
69.934998	-4.925532E-7
69.940002	-3.741588E-7
69.949997	-4.629837E-7
69.955002	-5.728798E-7
69.959999	-5.264301E-7
69.964996	-3.910391E-7
69.970001	-3.445894E-7
69.980003	-3.022142E-7
69.985001	-3.783498E-7
69.989998	-2.642628E-7
69.995003	-2.726447E-7
70.000000	-4.004687E-8
70.010002	-2.345769E-7
70.014999	-2.008164E-7
70.019997	-2.303859E-7
70.025002	-5.222391E-7
70.029999	-3.572786E-7
70.040001	-4.376052E-7
70.044998	-3.783498E-7
70.050003	-3.995374E-7
70.055000	-4.334142E-7
70.059998	-4.968606E-7
70.070000	-3.360910E-7
70.074997	-4.671747E-7
70.080002	-2.853340E-7
70.084999	-4.854519E-8
70.089996	-2.811430E-7
70.099998	-1.711305E-7
70.105003	-3.572786E-7
70.110001	-2.853340E-7
70.114998	-3.953464E-7
70.120003	-4.122267E-7
70.129997	-4.334142E-7
70.135002	-2.345769E-7
70.139999	-4.883623E-7
70.144997	-5.728798E-7
70.150002	-2.388842E-7
70.160004	-4.376052E-7
70.165001	-4.671747E-7
70.169998	-2.726447E-7
70.175003	-3.868481E-7
70.180000	-1.796288E-7
70.190002	-2.684537E-7
70.195000	-2.980232E-7
70.199997	-1.076842E-7
70.205002	-3.699679E-7
70.209999	-3.022142E-7
70.220001	-4.037283E-7
70.224998	-4.798640E-7
70.230003	-4.756730E-7
70.235001	-3.614696E-7
70.239998	-3.826572E-7
70.250000	-3.319001E-7
70.254997	-2.768356E-7
70.260002	-2.684537E-7
70.264999	-6.123446E-8
70.269997	-3.022142E-7
70.279999	-2.091983E-7
70.285004	-3.022142E-7
70.290001	-2.345769E-7
70.294998	-3.360910E-7
70.300003	-5.222391E-7
70.309998	-4.334142E-7
70.315002	-4.798640E-7
70.320000	-4.207250E-7
70.324997	-4.249159E-7
70.330002	-5.179318E-7
70.339996	-4.502945E-7
70.345001	-2.938323E-7
70.349998	-3.953464E-7
70.355003	-1.796288E-7
70.360001	-2.515735E-7
70.370003	-1.711305E-7
70.375000	-2.557645E-7
70.379997	-2.345769E-7
70.385002	-2.599554E-7
70.389999	-3.741588E-7
70.400002	-4.080357E-7
70.404999	-2.768356E-7
70.410004	-4.037283E-7
70.415001	-3.699679E-7
70.419998	-2.388842E-7
70.430000	-3.529713E-7
70.434998	-4.544854E-7
70.440002	-3.192108E-7
70.445000	-2.472661E-7
70.449997	-3.107125E-7
70.459999	-1.838198E-7
70.464996	-2.176967E-7
70.470001	-1.711305E-7
70.474998	-2.768356E-7
70.480003	-3.910391E-7
70.489998	-4.587928E-7
70.495003	-4.249159E-7
70.500000	-4.207250E-7
70.504997	-4.629837E-7
70.510002	-5.348120E-7
70.519997	-2.261950E-7
70.525002	-4.587928E-7
70.529999	-3.234018E-7
70.535004	-4.417961E-7
70.540001	-1.711305E-7
70.550003	-2.008164E-7
70.555000	-4.629837E-7
70.559998	-1.669396E-7
70.565002	-3.614696E-7
70.570000	-3.487803E-7
70.580002	-5.052425E-7
70.584999	-6.067567E-7
70.589996	-3.783498E-7
70.595001	-4.122267E-7
70.599998	-4.714821E-7
70.610001	-5.264301E-7
70.614998	-3.192108E-7
70.620003	-3.445894E-7
70.625000	-2.050074E-7
70.629997	-2.303859E-7
70.639999	-2.599554E-7
70.644997	-2.050074E-7
70.650002	-2.261950E-7
70.654999	-3.402820E-7
70.660004	-3.868481E-7
70.669998	-4.671747E-7
70.675003	-3.910391E-7
70.680000	-5.433103E-7
70.684998	-4.925532E-7
70.690002	-4.841713E-7
70.699997	-2.218876E-7
70.705002	-2.980232E-7
70.709999	-2.938323E-7
70.714996	-4.080357E-7
70.720001	-2.135057E-7
70.730003	-4.544854E-7
70.735001	-2.515735E-7
70.739998	-3.107125E-7
70.745003	-7.811468E-8
70.750000	-2.853340E-7
70.760002	-3.699679E-7
70.764999	-2.135057E-7
70.769997	-4.249159E-7
70.775002	-3.953464E-7
70.779999	-4.671747E-7
70.790001	-5.518086E-7
70.794998	-3.953464E-7
70.800003	-2.726447E-7
70.805000	-2.938323E-7
70.809998	-3.319001E-7
70.820000	-2.430752E-7
70.824997	-2.050074E-7
70.830002	-4.854519E-8
70.834999	-2.684537E-7
70.839996	-3.275927E-7
70.849998	-2.599554E-7
70.855003	-3.656605E-7
70.860001	-5.518086E-7
70.864998	-4.249159E-7
70.870003	-3.699679E-7
70.879997	-4.925532E-7
70.885002	-3.529713E-7
70.889999	-3.234018E-7
70.894997	-1.161825E-7
70.900002	-3.275927E-7
70.910004	-3.192108E-7
70.915001	-2.345769E-7
70.919998	-2.316665E-8
70.925003	-1.965091E-7
70.930000	-3.614696E-7
70.940002	-3.868481E-7
70.945000	-3.445894E-7
70.949997	-4.417961E-7
70.955002	-3.826572E-7
70.959999	-4.587928E-7
70.970001	-4.249159E-7
70.974998	-5.391194E-7
70.980003	-3.487803E-7
70.985001	-2.599554E-7
70.989998	-2.980232E-7
71.000000	-2.642628E-7
71.004997	-2.388842E-7
71.010002	-1.542503E-7
71.014999	-2.430752E-7
71.019997	-2.853340E-7
71.029999	-9.499490E-8
71.035004	-2.980232E-7
71.040001	-3.319001E-7
71.044998	-4.925532E-7
71.050003	-6.109476E-7
71.059998	-3.319001E-7
71.065002	-3.699679E-7
71.070000	-3.319001E-7
71.074997	-3.107125E-7
71.080002	-3.022142E-7
71.089996	-1.373701E-7
71.095001	-1.466833E-8
71.099998	-1.584413E-7
71.105003	-2.008164E-7
71.110001	-3.192108E-7
71.120003	-3.107125E-7
71.125000	-4.291069E-7
71.129997	-5.518086E-7
71.135002	-3.572786E-7
71.139999	-3.868481E-7
71.150002	-3.995374E-7
71.154999	-3.783498E-7
71.160004	-1.076842E-7
71.165001	-4.291069E-7
71.169998	-4.854519E-8
71.180000	-1.754379E-7
71.184998	-1.796288E-7
71.190002	-2.768356E-7
71.195000	-2.642628E-7
71.199997	-2.303859E-7
71.209999	-1.034932E-7
71.214996	-2.684537E-7
71.220001	-2.853340E-7
71.224998	-3.953464E-7
71.235001	-4.122267E-7
71.239998	-3.402820E-7
71.245003	-4.925532E-7
71.250000	-2.599554E-7
71.254997	-2.980232E-7
71.264999	-1.246808E-7
71.269997	-2.135057E-7
71.275002	-1.979060E-9
71.279999	-1.796288E-7
71.285004	-2.684537E-7
71.294998	-2.388842E-7
71.300003	-3.995374E-7
71.305000	-2.642628E-7
71.309998	-3.741588E-7
71.315002	-2.557645E-7
71.324997	-4.461035E-7
71.330002	-3.149034E-7
71.334999	-4.164176E-7
71.339996	-2.176967E-7
71.345001	-2.472661E-7
71.355003	-2.430752E-7
71.360001	-1.288718E-7
71.364998	-1.034932E-7
71.370003	-4.164176E-7
71.375000	-3.402820E-7
71.385002	-1.034932E-7
71.389999	-3.192108E-7
71.394997	-2.684537E-7
71.400002	-1.584413E-7
71.404999	-3.319001E-7
71.415001	-3.529713E-7
71.419998	-5.095499E-7
71.425003	-3.360910E-7
71.430000	-4.080357E-7
71.434998	-3.065215E-7
71.445000	-2.218876E-7
71.449997	-1.881272E-7
71.455002	-2.430752E-7
71.459999	-2.388842E-7
71.464996	-1.119915E-7
71.474998	-2.050074E-7
71.480003	-3.868481E-7
71.485001	-4.080357E-7
71.489998	-2.642628E-7
71.495003	-3.910391E-7
71.504997	-4.122267E-7
71.510002	-5.644979E-7
71.514999	-2.980232E-7
71.519997	-4.037283E-7
71.525002	-2.557645E-7
71.535004	-3.868481E-7
71.540001	-1.246808E-7
71.544998	-2.895249E-7
71.550003	-3.319001E-7
71.555000	-2.050074E-7
71.565002	-1.711305E-7
71.570000	-2.642628E-7
71.574997	-3.572786E-7
71.580002	-3.656605E-7
71.584999	-4.756730E-7
71.595001	-3.572786E-7
71.599998	-4.798640E-7
71.605003	-5.982583E-7
71.610001	-3.953464E-7
71.614998	-3.319001E-7
71.625000	-2.472661E-7
71.629997	-1.373701E-7
71.635002	-7.811468E-8
71.639999	-1.457520E-7
71.644997	-9.930227E-8
71.654999	-1.754379E-7
71.660004	-4.291069E-7
71.665001	-2.472661E-7
71.669998	-3.360910E-7
71.675003	-4.756730E-7
71.684998	-3.614696E-7
71.690002	-3.953464E-7
71.695000	-2.853340E-7
71.699997	-2.642628E-7
71.705002	-2.642628E-7
71.714996	-1.584413E-7
71.720001	-3.107125E-7
71.724998	-1.542503E-7
71.730003	-2.599554E-7
71.735001	3.178138E-8
71.745003	-1.161825E-7
71.750000	-2.135057E-7
71.754997	-1.754379E-7
71.760002	-3.529713E-7
71.764999	-2.684537E-7
71.775002	-2.684537E-7
71.779999	-1.457520E-7
71.785004	-1.034932E-7
71.790001	-4.037283E-7
71.794998	-2.345769E-7
71.805000	-1.500593E-7
71.809998	-1.669396E-7
71.815002	-1.288718E-7
71.820000	-1.161825E-7
71.824997	-9.080395E-8
71.834999	-8.230563E-8
71.839996	-1.965091E-7
71.845001	-2.345769E-7
71.849998	-2.050074E-7
71.855003	-4.122267E-7
71.864998	-3.826572E-7
71.870003	-2.176967E-7
71.875000	-6.194459E-7
71.879997	-9.080395E-8
71.885002	-1.881272E-7
71.894997	-2.176967E-7
71.900002	-6.542541E-8
71.904999	-2.050074E-7
71.910004	-1.965091E-7
71.915001	-2.050074E-7
71.925003	-1.047738E-8
71.930000	9.522773E-8
71.934998	-9.080395E-8
71.940002	-8.661300E-8
71.945000	-2.008164E-7
71.955002	-3.022142E-7
71.959999	-1.923181E-7
71.964996	-3.741588E-7
71.970001	-2.091983E-7
71.974998	-2.980232E-7
71.985001	-6.542541E-8
71.989998	-1.034932E-7
71.995003	1.798617E-7
72.000000	2.339948E-8
72.004997	4.027970E-8
72.014999	1.490116E-8
72.019997	-2.642628E-7
72.025002	-1.288718E-7
72.029999	-4.423782E-8
72.035004	-9.499490E-8
72.044998	-1.584413E-7
72.050003	-2.472661E-7
72.055000	-1.965091E-7
72.059998	2.339948E-8
72.065002	-5.692709E-8
72.074997	-4.854519E-8
72.080002	-6.961636E-8
72.084999	2.759043E-8
72.089996	-2.091983E-7
72.095001	2.052402E-7
72.105003	-1.979060E-9
72.110001	-1.246808E-7
72.114998	-7.392373E-8
72.120003	-1.161825E-7
72.125000	8.684583E-8
72.135002	-1.373701E-7
72.139999	-1.330627E-7
72.144997	-1.119915E-7
72.150002	-2.938323E-7
72.154999	-2.176967E-7
72.165001	-4.423782E-8
72.169998	2.211891E-9
72.175003	8.684583E-8
72.180000	1.544831E-7
72.184998	1.713634E-7
72.195000	1.332955E-7
72.199997	9.522773E-8
72.205002	-1.047738E-8
72.209999	5.715992E-8
72.214996	2.339948E-8
72.224998	-3.154855E-8
72.230003	-5.692709E-8
72.235001	-4.423782E-8
72.239998	-4.423782E-8
72.245003	4.447065E-8
72.254997	-5.273614E-8
72.260002	-2.316665E-8
72.264999	1.079170E-7
72.269997	2.136221E-7
72.275002	2.855668E-7
72.285004	4.462199E-7
72.290001	5.715992E-8
72.294998	1.291046E-7
72.300003	8.684583E-8
72.305000	9.103678E-8
72.315002	1.079170E-7
72.320000	1.291046E-7
72.324997	-6.286427E-9
72.330002	-6.286427E-9
72.334999	1.376029E-7
72.345001	-9.499490E-8
72.349998	2.601882E-7
72.355003	2.770685E-7
72.360001	5.054753E-7
72.364998	2.601882E-7
72.375000	2.728775E-7
72.379997	1.586741E-7
72.385002	3.320165E-7
72.389999	2.136221E-7
72.394997	2.813758E-7
72.404999	1.037261E-7
72.410004	3.870809E-7
72.415001	2.686866E-7
72.419998	1.071021E-8
72.425003	2.094312E-7
72.434998	2.686866E-7
72.440002	1.586741E-7
72.445000	4.589092E-7
72.449997	4.589092E-7
72.455002	4.969770E-7
72.464996	5.392358E-7
72.470001	4.420290E-7
72.474998	6.661285E-7
72.480003	2.982561E-7
72.485001	4.293397E-7
72.495003	4.081521E-7
72.500000	2.686866E-7
72.504997	3.954628E-7
72.510002	3.700843E-7
72.514999	4.715985E-7
72.525002	4.420290E-7
72.529999	7.253839E-7
72.535004	5.562324E-7
72.540001	6.026821E-7
72.544998	7.083872E-7
72.555000	6.534392E-7
72.559998	5.731126E-7
72.565002	6.661285E-7
72.570000	6.788177E-7
72.574997	7.126946E-7
72.584999	4.251488E-7
72.589996	5.604234E-7
72.595001	6.661285E-7
72.599998	6.449409E-7
72.605003	6.534392E-7
72.614998	7.253839E-7
72.620003	7.676426E-7
72.625000	8.225907E-7
72.629997	1.055188E-6
72.639999	8.860370E-7
72.644997	9.282958E-7
72.650002	1.000240E-6
72.654999	9.367941E-7
72.660004	8.818461E-7
72.669998	9.072246E-7
72.675003	7.718336E-7
72.680000	1.059379E-6
72.684998	8.733477E-7
72.690002	8.945353E-7
72.699997	7.888302E-7
72.705002	9.832438E-7
72.709999	9.959331E-7
72.714996	1.160894E-6
72.720001	1.232838E-6
72.730003	1.275097E-6
72.735001	1.308857E-6
72.739998	1.439941E-6
72.745003	1.148204E-6
72.750000	1.465320E-6
72.760002	1.321547E-6
72.764999	1.363922E-6
72.769997	1.220149E-6
72.775002	1.105946E-6
72.779999	1.321547E-6
72.790001	1.330045E-6
72.794998	1.291977E-6
72.800003	1.427252E-6
72.805000	1.406181E-6
72.809998	1.757173E-6
72.820000	1.520384E-6
72.824997	1.562643E-6
72.830002	1.579523E-6
72.834999	1.685228E-6
72.839996	1.655659E-6
72.849998	1.596403E-6
72.855003	1.702225E-6
72.860001	1.621782E-6
72.864998	1.782551E-6
72.870003	1.714914E-6
72.879997	1.981272E-6
72.885002	1.845998E-6
72.889999	1.883949E-6
72.894997	2.015149E-6
72.900002	2.065790E-6
72.910004	2.328074E-6
72.915001	2.082787E-6
72.919998	2.213870E-6
72.925003	2.454850E-6
72.930000	2.226559E-6
72.940002	2.454850E-6
72.945000	2.366025E-6
72.949997	2.150424E-6
72.955002	2.264627E-6
72.959999	2.344954E-6
72.970001	2.260320E-6
72.974998	2.450659E-6
72.980003	2.518296E-6
72.985001	2.619810E-6
72.989998	2.915855E-6
73.000000	2.886169E-6
73.004997	2.936926E-6
73.010002	2.966612E-6
73.014999	2.941233E-6
73.019997	2.987683E-6
73.029999	3.068009E-6
73.035004	3.055320E-6
73.040001	3.072317E-6
73.044998	3.114576E-6
73.050003	3.106077E-6
73.059998	3.169524E-6
73.065002	3.245659E-6
73.070000	3.279536E-6
73.074997	3.431691E-6
73.080002	3.372552E-6
73.089996	3.744615E-6
73.095001	3.685476E-6
73.099998	3.968715E-6
73.105003	3.901077E-6
73.110001	3.871508E-6
73.120003	3.740424E-6
73.125000	4.040659E-6
73.129997	4.032161E-6
73.135002	3.837631E-6
73.139999	4.104106E-6
73.150002	4.315516E-6
73.154999	4.260568E-6
73.160004	4.336704E-6
73.165001	4.649628E-6
73.169998	4.484667E-6
73.180000	4.670699E-6
73.184998	4.772213E-6
73.190002	4.852540E-6
73.195000	5.165464E-6
73.199997	5.157082E-6
73.209999	5.038572E-6
73.214996	5.212030E-6
73.220001	5.203532E-6
73.224998	5.212030E-6
73.230003	5.245791E-6
73.239998	5.423441E-6
73.245003	5.529146E-6
73.250000	5.563023E-6
73.254997	5.546026E-6
73.260002	5.723676E-6
73.269997	5.888636E-6
73.275002	6.391783E-6
73.279999	6.180373E-6
73.285004	6.264891E-6
73.290001	6.400282E-6
73.300003	6.548245E-6
73.305000	6.298767E-6
73.309998	6.670947E-6
73.315002	6.565242E-6
73.320000	6.966875E-6
73.330002	7.072580E-6
73.334999	7.140334E-6
73.339996	7.212162E-6
73.345001	7.148716E-6
73.349998	7.470138E-6
73.360001	7.901457E-6
73.364998	7.825322E-6
73.370003	7.977593E-6
73.375000	8.045230E-6
73.379997	8.231262E-6
73.389999	8.345465E-6
73.394997	8.332776E-6
73.400002	8.485047E-6
73.404999	8.620322E-6
73.410004	8.556875E-6
73.419998	8.958625E-6
73.425003	9.022071E-6
73.430000	9.199721E-6
73.434998	9.347685E-6
73.440002	9.360374E-6
73.449997	9.842450E-6
73.455002	1.007074E-5
73.459999	1.014688E-5
73.464996	1.022720E-5
73.470001	1.032022E-5
73.480003	1.066702E-5
73.485001	1.063314E-5
73.489998	1.073896E-5
73.495003	1.106877E-5
73.500000	1.106877E-5
73.510002	1.125480E-5
73.514999	1.144514E-5
73.519997	1.150009E-5
73.525002	1.194410E-5
73.529999	1.207099E-5
73.540001	1.234165E-5
73.544998	1.244736E-5
73.550003	1.254457E-5
73.555000	1.280254E-5
73.559998	1.298438E-5
73.570000	1.317891E-5
73.574997	1.336075E-5
73.580002	1.356367E-5
73.584999	1.362711E-5
73.589996	1.382583E-5
73.599998	1.442630E-5
73.605003	1.427415E-5
73.610001	1.470547E-5
73.614998	1.473923E-5
73.620003	1.495914E-5
73.629997	1.526368E-5
73.635002	1.569500E-5
73.639999	1.584296E-5
73.644997	1.577532E-5
73.650002	1.621933E-5
73.660004	1.663377E-5
73.665001	1.671829E-5
73.669998	1.721305E-5
73.675003	1.706078E-5
73.680000	1.730188E-5
73.690002	1.768244E-5
73.695000	1.803343E-5
73.699997	1.810957E-5
73.705002	1.840980E-5
73.709999	1.865078E-5
73.720001	1.906941E-5
73.724998	1.934858E-5
73.730003	1.966150E-5
73.735001	1.983915E-5
73.739998	2.000399E-5
73.750000	2.048607E-5
73.754997	2.090470E-5
73.760002	2.103159E-5
73.764999	2.125150E-5
73.769997	2.169970E-5
73.779999	2.189423E-5
73.785004	2.234243E-5
73.790001	2.243975E-5
73.794998	2.277805E-5
73.800003	2.304872E-5
73.809998	2.332777E-5
73.815002	2.386910E-5
73.820000	2.420740E-5
73.824997	2.438074E-5
73.830002	2.474862E-5
73.839996	2.528995E-5
73.845001	2.564513E-5
73.849998	2.581428E-5
73.855003	2.618216E-5
73.860001	2.627936E-5
73.870003	2.694759E-5
73.875000	2.738310E-5
73.879997	2.759881E-5
73.885002	2.800894E-5
73.889999	2.787367E-5
73.900002	2.883782E-5
73.904999	2.948474E-5
73.910004	2.961163E-5
73.915001	3.001757E-5
73.919998	3.056729E-5
73.930000	3.103248E-5
73.934998	3.149337E-5
73.940002	3.188662E-5
73.945000	3.237720E-5
73.949997	3.266474E-5
73.959999	3.302842E-5
73.964996	3.358664E-5
73.970001	3.394601E-5
73.974998	3.402214E-5
73.980003	3.452960E-5
73.989998	3.534998E-5
73.995003	3.582356E-5
74.000000	3.641134E-5
74.004997	3.665243E-5
74.014999	3.728247E-5
74.019997	3.800984E-5
74.025002	3.828050E-5
74.029999	3.870763E-5
74.035004	3.934617E-5
74.044998	3.973092E-5
74.050003	4.042871E-5
74.055000	4.077121E-5
74.059998	4.130823E-5
74.065002	4.173536E-5
74.074997	4.235271E-5
74.080002	4.318578E-5
74.084999	4.339719E-5
74.089996	4.412036E-5
74.095001	4.421757E-5
74.105003	4.541432E-5
74.110001	4.579488E-5
74.114998	4.609092E-5
74.120003	4.713121E-5
74.125000	4.756672E-5
74.135002	4.829408E-5
74.139999	4.877616E-5
74.144997	4.928361E-5
74.150002	4.976988E-5
74.154999	5.022658E-5
74.165001	5.143171E-5
74.169998	5.183776E-5
74.175003	5.227746E-5
74.180000	5.341927E-5
74.184998	5.371100E-5
74.195000	5.458633E-5
74.199997	5.541102E-5
74.205002	5.623978E-5
74.209999	5.685713E-5
74.214996	5.759299E-5
74.224998	5.856983E-5
74.230003	5.911104E-5
74.235001	5.977077E-5
74.239998	6.019790E-5
74.245003	6.081944E-5
74.254997	6.168219E-5
74.260002	6.265892E-5
74.264999	6.347930E-5
74.269997	6.398256E-5
74.275002	6.457453E-5
74.285004	6.614765E-5
74.290001	6.635068E-5
74.294998	6.715406E-5
74.300003	6.788142E-5
74.305000	6.871449E-5
74.315002	7.025793E-5
74.320000	7.062161E-5
74.324997	7.142511E-5
74.330002	7.187750E-5
74.334999	7.293897E-5
74.345001	7.434282E-5
74.349998	7.487996E-5
74.355003	7.559883E-5
74.360001	7.637264E-5
74.364998	7.773435E-5
74.375000	7.898605E-5
74.379997	7.938768E-5
74.385002	8.025463E-5
74.389999	8.091005E-5
74.394997	8.217862E-5
74.404999	8.361647E-5
74.410004	8.453825E-5
74.415001	8.547702E-5
74.419998	8.586608E-5
74.425003	8.689787E-5
74.434998	8.868671E-5
74.440002	8.920254E-5
74.445000	9.032316E-5
74.449997	9.077985E-5
74.455002	9.195972E-5
74.464996	9.339745E-5
74.470001	9.442924E-5
74.474998	9.509735E-5
74.480003	9.606150E-5
74.485001	9.713136E-5
74.495003	9.964744E-5
74.500000	0.000101
74.504997	0.000102
74.510002	0.000102
74.514999	0.000103
74.525002	0.000105
74.529999	0.000106
74.535004	0.000107
74.540001	0.000108
74.544998	0.000109
74.555000	0.000111
74.559998	0.000112
74.565002	0.000112
74.570000	0.000114
74.574997	0.000115
74.584999	0.000117
74.589996	0.000118
74.595001	0.000119
74.599998	0.000121
74.605003	0.000121
74.614998	0.000123
74.620003	0.000125
74.625000	0.000126
74.629997	0.000127
74.635002	0.000128
74.644997	0.000130
74.650002	0.000132
74.654999	0.000133
74.660004	0.000134
74.665001	0.000135
74.675003	0.000137
74.680000	0.000139
74.684998	0.000140
74.690002	0.000142
74.695000	0.000143
74.705002	0.000144
74.709999	0.000147
74.714996	0.000148
74.720001	0.000149
74.724998	0.000150
74.735001	0.000152
74.739998	0.000154
74.745003	0.000155
74.750000	0.000157
74.754997	0.000157
74.764999	0.000160
74.769997	0.000162
74.775002	0.000163
74.779999	0.000164
74.785004	0.000166
74.794998	0.000169
74.800003	0.000170
74.805000	0.000171
74.809998	0.000173
74.815002	0.000175
74.824997	0.000177
74.830002	0.000178
74.834999	0.000180
74.839996	0.000182
74.845001	0.000183
74.855003	0.000186
74.860001	0.000187
74.864998	0.000189
74.870003	0.000190
74.875000	0.000191
74.885002	0.000194
74.889999	0.000195
74.894997	0.000197
74.900002	0.000199
74.904999	0.000200
74.915001	0.000202
74.919998	0.000205
74.925003	0.000205
74.930000	0.000207
74.934998	0.000208
74.945000	0.000211
74.949997	0.000213
74.955002	0.000215
74.959999	0.000216
74.964996	0.000217
74.974998	0.000220
74.980003	0.000221
74.985001	0.000223
74.989998	0.000224
74.995003	0.000225
75.004997	0.000228
75.010002	0.000229
75.014999	0.000231
75.019997	0.000232
75.025002	0.000234
75.035004	0.000236
75.040001	0.000238
75.044998	0.000239
75.050003	0.000241
75.055000	0.000242
75.065002	0.000244
75.070000	0.000245
75.074997	0.000247
75.080002	0.000248
75.084999	0.000249
75.095001	0.000251
75.099998	0.000253
75.105003	0.000254
75.110001	0.000255
75.114998	0.000256
75.125000	0.000258
75.129997	0.000259
75.135002	0.000260
75.139999	0.000262
75.144997	0.000262
75.154999	0.000264
75.160004	0.000265
75.165001	0.000266
75.169998	0.000267
75.175003	0.000268
75.184998	0.000269
75.190002	0.000270
75.195000	0.000271
75.199997	0.000272
75.205002	0.000272
75.214996	0.000274
75.220001	0.000275
75.224998	0.000276
75.230003	0.000277
75.235001	0.000277
75.245003	0.000278
75.250000	0.000279
75.254997	0.000279
75.260002	0.000280
75.264999	0.000281
75.275002	0.000282
75.279999	0.000283
75.285004	0.000283
75.290001	0.000284
75.294998	0.000284
75.305000	0.000286
75.309998	0.000286
75.315002	0.000286
75.320000	0.000287
75.324997	0.000287
75.334999	0.000289
75.339996	0.000289
75.345001	0.000289
75.349998	0.000290
75.355003	0.000290
75.364998	0.000292
75.370003	0.000292
75.375000	0.000292
75.379997	0.000293
75.389999	0.000294
75.394997	0.000294
75.400002	0.000295
75.404999	0.000295
75.410004	0.000296
75.419998	0.000296
75.425003	0.000297
75.430000	0.000297
75.434998	0.000298
75.440002	0.000298
75.449997	0.000299
75.455002	0.000299
75.459999	0.000300
75.464996	0.000300
75.470001	0.000300
75.480003	0.000301
75.485001	0.000302
75.489998	0.000302
75.495003	0.000303
75.500000	0.000303
75.510002	0.000304
75.514999	0.000304
75.519997	0.000304
75.525002	0.000305
75.529999	0.000305
75.540001	0.000306
75.544998	0.000306
75.550003	0.000306
75.555000	0.000307
75.559998	0.000307
75.570000	0.000308
75.574997	0.000309
75.580002	0.000309
75.584999	0.000309
75.589996	0.000310
75.599998	0.000310
75.605003	0.000311
75.610001	0.000311
75.614998	0.000311
75.620003	0.000312
75.629997	0.000312
75.635002	0.000313
75.639999	0.000313
75.644997	0.000314
75.650002	0.000314
75.660004	0.000315
75.665001	0.000315
75.669998	0.000315
75.675003	0.000316
75.680000	0.000316
75.690002	0.000317
75.695000	0.000317
75.699997	0.000317
75.705002	0.000318
75.709999	0.000318
75.720001	0.000319
75.724998	0.000319
75.730003	0.000319
75.735001	0.000319
75.739998	0.000320
75.750000	0.000320
75.754997	0.000321
75.760002	0.000321
75.764999	0.000321
75.769997	0.000322
75.779999	0.000322
75.785004	0.000323
75.790001	0.000323
75.794998	0.000323
75.800003	0.000323
75.809998	0.000324
75.815002	0.000324
75.820000	0.000325
75.824997	0.000325
75.830002	0.000325
75.839996	0.000326
75.845001	0.000326
75.849998	0.000326
75.855003	0.000327
75.860001	0.000327
75.870003	0.000328
75.875000	0.000328
75.879997	0.000328
75.885002	0.000328
75.889999	0.000329
75.900002	0.000329
75.904999	0.000329
75.910004	0.000330
75.915001	0.000330
75.919998	0.000330
75.930000	0.000331
75.934998	0.000331
75.940002	0.000331
75.945000	0.000332
75.949997	0.000332
75.959999	0.000333
75.964996	0.000333
75.970001	0.000333
75.974998	0.000333
75.980003	0.000333
75.989998	0.000334
75.995003	0.000334
76.000000	0.000334
76.004997	0.000335
76.010002	0.000335
76.019997	0.000335
76.025002	0.000336
76.029999	0.000336
76.035004	0.000336
76.040001	0.000336
76.050003	0.000337
76.055000	0.000337
76.059998	0.000337
76.065002	0.000338
76.070000	0.000338
76.080002	0.000338
76.084999	0.000339
76.089996	0.000339
76.095001	0.000339
76.099998	0.000339
76.110001	0.000340
76.114998	0.000340
76.120003	0.000340
76.125000	0.000341
76.129997	0.000341
76.139999	0.000341
76.144997	0.000342
76.150002	0.000342
76.154999	0.000342
76.160004	0.000342
76.169998	0.000343
76.175003	0.000343
76.180000	0.000343
76.184998	0.000343
76.190002	0.000343
76.199997	0.000344
76.205002	0.000344
76.209999	0.000344
76.214996	0.000345
76.220001	0.000345
76.230003	0.000345
76.235001	0.000345
76.239998	0.000346
76.245003	0.000346
76.250000	0.000346
76.260002	0.000347
76.264999	0.000347
76.269997	0.000347
76.275002	0.000347
76.279999	0.000347
76.290001	0.000348
76.294998	0.000348
76.300003	0.000348
76.305000	0.000348
76.309998	0.000349
76.320000	0.000349
76.324997	0.000349
76.330002	0.000349
76.334999	0.000350
76.339996	0.000350
76.349998	0.000350
76.355003	0.000350
76.360001	0.000351
76.364998	0.000351
76.370003	0.000351
76.379997	0.000351
76.385002	0.000351
76.389999	0.000352
76.394997	0.000352
76.400002	0.000352
76.410004	0.000352
76.415001	0.000353
76.419998	0.000353
76.425003	0.000353
76.430000	0.000353
76.440002	0.000354
76.445000	0.000354
76.449997	0.000354
76.455002	0.000354
76.459999	0.000354
76.470001	0.000355
76.474998	0.000355
76.480003	0.000355
76.485001	0.000355
76.489998	0.000355
76.500000	0.000356
76.504997	0.000356
76.510002	0.000356
76.514999	0.000356
76.519997	0.000357
76.529999	0.000357
76.535004	0.000357
76.540001	0.000357
76.544998	0.000357
76.550003	0.000357
76.559998	0.000358
76.565002	0.000358
76.570000	0.000358
76.574997	0.000358
76.580002	0.000358
76.589996	0.000359
76.595001	0.000359
76.599998	0.000359
76.605003	0.000359
76.610001	0.000360
76.620003	0.000360
76.625000	0.000360
76.629997	0.000360
76.635002	0.000360
76.639999	0.000360
76.650002	0.000361
76.654999	0.000361
76.660004	0.000361
76.665001	0.000361
76.669998	0.000361
76.680000	0.000362
76.684998	0.000362
76.690002	0.000362
76.695000	0.000362
76.699997	0.000362
76.709999	0.000363
76.714996	0.000363
76.720001	0.000363
76.724998	0.000363
76.730003	0.000363
76.739998	0.000364
76.745003	0.000364
76.750000	0.000364
76.754997	0.000364
76.760002	0.000364
76.769997	0.000364
76.775002	0.000365
76.779999	0.000365
76.785004	0.000365
76.794998	0.000365
76.800003	0.000365
76.805000	0.000366
76.809998	0.000366
76.815002	0.000366
76.824997	0.000366
76.830002	0.000366
76.834999	0.000366
76.839996	0.000367
76.845001	0.000367
76.855003	0.000367
76.860001	0.000367
76.864998	0.000367
76.870003	0.000368
76.875000	0.000368
76.885002	0.000368
76.889999	0.000368
76.894997	0.000368
76.900002	0.000368
76.904999	0.000368
76.915001	0.000369
76.919998	0.000369
76.925003	0.000369
76.930000	0.000369
76.934998	0.000369
76.945000	0.000369
76.949997	0.000370
76.955002	0.000370
76.959999	0.000370
76.964996	0.000370
76.974998	0.000370
76.980003	0.000371
76.985001	0.000371
76.989998	0.000371
76.995003	0.000371
77.004997	0.000371
77.010002	0.000371
77.014999	0.000371
77.019997	0.000371
77.025002	0.000372
77.035004	0.000372
77.040001	0.000372
77.044998	0.000372
77.050003	0.000372
77.055000	0.000372
77.065002	0.000373
77.070000	0.000373
77.074997	0.000373
77.080002	0.000373
77.084999	0.000373
77.095001	0.000373
77.099998	0.000374
77.105003	0.000374
77.110001	0.000374
77.114998	0.000374
77.125000	0.000374
77.129997	0.000374
77.135002	0.000374
77.139999	0.000375
77.144997	0.000375
77.154999	0.000375
77.160004	0.000375
77.165001	0.000375
77.169998	0.000375
77.175003	0.000375
77.184998	0.000376
77.190002	0.000376
77.195000	0.000376
77.199997	0.000376
77.205002	0.000376
77.214996	0.000376
77.220001	0.000376
77.224998	0.000377
77.230003	0.000377
77.235001	0.000377
77.245003	0.000377
77.250000	0.000377
77.254997	0.000377
77.260002	0.000378
77.264999	0.000378
77.275002	0.000378
77.279999	0.000378
77.285004	0.000378
77.290001	0.000378
77.294998	0.000378
77.305000	0.000378
77.309998	0.000379
77.315002	0.000379
77.320000	0.000379
77.324997	0.000379
77.334999	0.000379
77.339996	0.000379
77.345001	0.000379
77.349998	0.000380
77.355003	0.000380
77.364998	0.000380
77.370003	0.000380
77.375000	0.000380
77.379997	0.000380
77.385002	0.000380
77.394997	0.000380
77.400002	0.000381
77.404999	0.000381
77.410004	0.000381
77.415001	0.000381
77.425003	0.000381
77.430000	0.000381
77.434998	0.000381
77.440002	0.000381
77.445000	0.000382
77.455002	0.000382
77.459999	0.000382
77.464996	0.000382
77.470001	0.000382
77.474998	0.000382
77.485001	0.000382
77.489998	0.000383
77.495003	0.000383
77.500000	0.000383
77.504997	0.000383
77.514999	0.000383
77.519997	0.000383
77.525002	0.000383
77.529999	0.000383
77.535004	0.000383
77.544998	0.000384
77.550003	0.000384
77.555000	0.000384
77.559998	0.000384
77.565002	0.000384
77.574997	0.000384
77.580002	0.000384
77.584999	0.000384
77.589996	0.000385
77.595001	0.000385
77.605003	0.000385
77.610001	0.000385
77.614998	0.000385
77.620003	0.000385
77.625000	0.000385
77.635002	0.000385
77.639999	0.000386
77.644997	0.000386
77.650002	0.000386
77.654999	0.000386
77.665001	0.000386
77.669998	0.000386
77.675003	0.000386
77.680000	0.000386
77.684998	0.000386
77.695000	0.000387
77.699997	0.000387
77.705002	0.000387
77.709999	0.000387
77.714996	0.000387
77.724998	0.000387
77.730003	0.000387
77.735001	0.000387
77.739998	0.000387
77.745003	0.000387
77.754997	0.000388
77.760002	0.000388
77.764999	0.000388
77.769997	0.000388
77.775002	0.000388
77.785004	0.000388
77.790001	0.000388
77.794998	0.000389
77.800003	0.000389
77.805000	0.000389
77.815002	0.000389
77.820000	0.000389
77.824997	0.000389
77.830002	0.000389
77.834999	0.000389
77.845001	0.000389
77.849998	0.000389
77.855003	0.000389
77.860001	0.000390
77.864998	0.000390
77.875000	0.000390
77.879997	0.000390
77.885002	0.000390
77.889999	0.000390
77.894997	0.000390
77.904999	0.000390
77.910004	0.000390
77.915001	0.000391
77.919998	0.000391
77.925003	0.000391
77.934998	0.000391
77.940002	0.000391
77.945000	0.000391
77.949997	0.000391
77.955002	0.000391
77.964996	0.000391
77.970001	0.000391
77.974998	0.000392
77.980003	0.000392
77.985001	0.000392
77.995003	0.000392
78.000000	0.000392
78.004997	0.000392
78.010002	0.000392
78.014999	0.000392
78.025002	0.000392
78.029999	0.000392
78.035004	0.000393
78.040001	0.000393
78.044998	0.000393
78.055000	0.000393
78.059998	0.000393
78.065002	0.000393
78.070000	0.000393
78.074997	0.000393
78.084999	0.000394
78.089996	0.000394
78.095001	0.000394
78.099998	0.000394
78.105003	0.000394
78.114998	0.000394
78.120003	0.000394
78.125000	0.000394
78.129997	0.000394
78.135002	0.000394
78.144997	0.000394
78.150002	0.000394
78.154999	0.000395
78.160004	0.000395
78.169998	0.000395
78.175003	0.000395
78.180000	0.000395
78.184998	0.000395
78.190002	0.000395
78.199997	0.000395
78.205002	0.000395
78.209999	0.000395
78.214996	0.000395
78.220001	0.000395
78.230003	0.000396
78.235001	0.000396
78.239998	0.000396
78.245003	0.000396
78.250000	0.000396
78.260002	0.000396
78.264999	0.000396
78.269997	0.000396
78.275002	0.000396
78.279999	0.000396
78.290001	0.000396
78.294998	0.000396
78.300003	0.000396
78.305000	0.000397
78.309998	0.000397
78.320000	0.000397
78.324997	0.000397
78.330002	0.000397
78.334999	0.000397
78.339996	0.000397
78.349998	0.000397
78.355003	0.000398
78.360001	0.000397
78.364998	0.000398
78.370003	0.000398
78.379997	0.000398
78.385002	0.000398
78.389999	0.000398
78.394997	0.000398
78.400002	0.000398
78.410004	0.000398
78.415001	0.000398
78.419998	0.000398
78.425003	0.000398
78.430000	0.000399
78.440002	0.000399
78.445000	0.000399
78.449997	0.000399
78.455002	0.000399
78.459999	0.000399
78.470001	0.000399
78.474998	0.000399
78.480003	0.000399
78.485001	0.000399
78.489998	0.000399
78.500000	0.000399
78.504997	0.000399
78.510002	0.000399
78.514999	0.000400
78.519997	0.000400
78.529999	0.000400
78.535004	0.000400
78.540001	0.000400
78.544998	0.000400
78.550003	0.000400
78.559998	0.000400
78.565002	0.000400
78.570000	0.000400
78.574997	0.000400
78.580002	0.000400
78.589996	0.000400
78.595001	0.000401
78.599998	0.000401
78.605003	0.000401
78.610001	0.000401
78.620003	0.000401
78.625000	0.000401
78.629997	0.000401
78.635002	0.000401
78.639999	0.000401
78.650002	0.000401
78.654999	0.000401
78.660004	0.000401
78.665001	0.000401
78.669998	0.000401
78.680000	0.000402
78.684998	0.000402
78.690002	0.000402
78.695000	0.000402
78.699997	0.000402
78.709999	0.000402
78.714996	0.000402
78.720001	0.000402
78.724998	0.000402
78.730003	0.000402
78.739998	0.000402
78.745003	0.000402
78.750000	0.000402
78.754997	0.000402
78.760002	0.000402
78.769997	0.000403
78.775002	0.000403
78.779999	0.000403
78.785004	0.000403
78.790001	0.000403
78.800003	0.000403
78.805000	0.000403
78.809998	0.000403
78.815002	0.000403
78.820000	0.000403
78.830002	0.000403
78.834999	0.000403
78.839996	0.000403
78.845001	0.000403
78.849998	0.000403
78.860001	0.000404
78.864998	0.000404
78.870003	0.000404
78.875000	0.000404
78.879997	0.000404
78.889999	0.000404
78.894997	0.000404
78.900002	0.000404
78.904999	0.000404
78.910004	0.000404
78.919998	0.000404
78.925003	0.000404
78.930000	0.000404
78.934998	0.000404
78.940002	0.000404
78.949997	0.000405
78.955002	0.000405
78.959999	0.000405
78.964996	0.000405
78.970001	0.000405
78.980003	0.000405
78.985001	0.000405
78.989998	0.000405
78.995003	0.000405
79.000000	0.000405
79.010002	0.000405
79.014999	0.000405
79.019997	0.000405
79.025002	0.000405
79.029999	0.000405
79.040001	0.000405
79.044998	0.000406
79.050003	0.000406
79.055000	0.000406
79.059998	0.000406
79.070000	0.000406
79.074997	0.000406
79.080002	0.000406
79.084999	0.000406
79.089996	0.000406
79.099998	0.000406
79.105003	0.000406
79.110001	0.000406
79.114998	0.000406
79.120003	0.000406
79.129997	0.000406
79.135002	0.000406
79.139999	0.000406
79.144997	0.000407
79.150002	0.000407
79.160004	0.000407
79.165001	0.000407
79.169998	0.000407
79.175003	0.000407
79.180000	0.000407
79.190002	0.000407
79.195000	0.000407
79.199997	0.000407
79.205002	0.000407
79.209999	0.000407
79.220001	0.000407
79.224998	0.000407
79.230003	0.000407
79.235001	0.000407
79.239998	0.000408
79.250000	0.000408
79.254997	0.000408
79.260002	0.000408
79.264999	0.000408
79.269997	0.000408
79.279999	0.000408
79.285004	0.000408
79.290001	0.000408
79.294998	0.000408
79.300003	0.000408
79.309998	0.000408
79.315002	0.000408
79.320000	0.000408
79.324997	0.000408
79.330002	0.000408
79.339996	0.000408
79.345001	0.000408
79.349998	0.000409
79.355003	0.000409
79.360001	0.000409
79.370003	0.000409
79.375000	0.000409
79.379997	0.000409
79.385002	0.000409
79.389999	0.000409
79.400002	0.000409
79.404999	0.000409
79.410004	0.000409
79.415001	0.000409
79.419998	0.000409
79.430000	0.000409
79.434998	0.000409
79.440002	0.000409
79.445000	0.000409
79.449997	0.000409
79.459999	0.000409
79.464996	0.000410
79.470001	0.000410
79.474998	0.000410
79.480003	0.000409
79.489998	0.000410
79.495003	0.000410
79.500000	0.000410
79.504997	0.000410
79.510002	0.000410
79.519997	0.000410
79.525002	0.000410
79.529999	0.000410
79.535004	0.000410
79.544998	0.000410
79.550003	0.000410
79.555000	0.000410
79.559998	0.000410
79.565002	0.000410
79.574997	0.000410
79.580002	0.000410
79.584999	0.000410
79.589996	0.000410
79.595001	0.000410
79.605003	0.000410
79.610001	0.000411
79.614998	0.000411
79.620003	0.000411
79.625000	0.000411
79.635002	0.000411
79.639999	0.000411
79.644997	0.000411
79.650002	0.000411
79.654999	0.000411
79.665001	0.000411
79.669998	0.000411
79.675003	0.000411
79.680000	0.000411
79.684998	0.000411
79.695000	0.000411
79.699997	0.000411
79.705002	0.000411
79.709999	0.000411
79.714996	0.000412
79.724998	0.000412
79.730003	0.000412
79.735001	0.000412
79.739998	0.000412
79.745003	0.000412
79.754997	0.000412
79.760002	0.000412
79.764999	0.000412
79.769997	0.000412
79.775002	0.000412
79.785004	0.000412
79.790001	0.000412
79.794998	0.000412
79.800003	0.000412
79.805000	0.000412
79.815002	0.000412
79.820000	0.000412
79.824997	0.000412
79.830002	0.000412
79.834999	0.000412
79.845001	0.000412
79.849998	0.000412
79.855003	0.000412
79.860001	0.000412
79.864998	0.000412
79.875000	0.000413
79.879997	0.000413
79.885002	0.000413
79.889999	0.000413
79.894997	0.000413
79.904999	0.000413
79.910004	0.000413
79.915001	0.000413
79.919998	0.000413
79.925003	0.000413
79.934998	0.000413
79.940002	0.000413
79.945000	0.000413
79.949997	0.000413
79.955002	0.000413
79.964996	0.000413
79.970001	0.000413
79.974998	0.000413
79.980003	0.000413
79.985001	0.000413
79.995003	0.000414
80.000000	0.000414
